Jul 20 2015 at 12:31:34
Frequency: 1.00Hz.
CO2
Zero:  Value:0.95  Date:18 Mar 2005	 at 07:22:33	
Span:  Value:1.00  Date:18 Mar 2005	 at 07:25:09	
H2O
Zero:  Value:0.71  Date:18 Mar 2005	 at 07:52:31	
Span:  Value:0.99  Date:18 Mar 2005	 at 11:44:01	
	Relative Time	Temperature	Pressure	Aux Input	CO2 Absorptance	CO2 mmol/m3	CO2 mg/m3	CO2 umol/mol	H2O Absorptance	H2O mmol/m3	H2O g/m3	H2O mmol/mol	H2O(°C)	Cooler Voltage
	0.70	36.24	73.67	0.00	0.0640	10.97	482.9	383.18	0.0856	752.5	13.544	26.27	16.93	1.74
	1.67	36.27	73.69	0.00	0.0641	11.01	484.4	384.30	0.0834	727.3	13.092	25.39	16.39	1.74
	2.70	36.27	73.67	0.00	0.0640	10.99	483.5	383.75	0.0850	740.7	13.333	25.87	16.68	1.74
	3.70	36.28	73.69	-0.00	0.0640	10.99	483.6	383.72	0.0851	743.5	13.383	25.96	16.74	1.74
	4.77	36.29	73.69	-0.00	0.0641	11.02	484.7	384.57	0.0847	740.1	13.322	25.84	16.67	1.74
	5.69	36.28	73.72	0.00	0.0640	10.98	483.1	383.20	0.0872	771.0	13.878	26.91	17.31	1.74
	6.69	36.28	73.64	0.00	0.0639	10.97	482.7	383.26	0.0873	769.3	13.848	26.88	17.28	1.74
	7.69	36.27	73.69	-0.00	0.0639	10.97	482.5	382.82	0.0872	771.1	13.881	26.92	17.32	1.74
	8.69	36.32	73.69	0.00	0.0641	11.05	486.0	385.68	0.0851	740.0	13.320	25.84	16.67	1.74
	9.69	36.29	73.69	-0.00	0.0643	11.07	487.0	386.44	0.0845	729.7	13.134	25.47	16.45	1.74
	10.76	36.29	73.69	0.00	0.0643	11.05	486.2	385.81	0.0837	730.6	13.151	25.51	16.47	1.74
	11.68	36.29	73.72	0.00	0.0644	11.06	486.8	386.14	0.0844	733.7	13.206	25.60	16.53	1.74
	12.70	36.28	73.69	-0.00	0.0643	11.04	485.7	385.36	0.0842	743.5	13.383	25.96	16.74	1.74
	13.70	36.29	73.67	0.00	0.0642	11.04	485.8	385.58	0.0851	742.1	13.357	25.92	16.71	1.74
	14.70	36.28	73.69	-0.00	0.0642	11.02	484.7	384.57	0.0848	744.1	13.393	25.98	16.75	1.74
	15.77	36.31	73.64	0.00	0.0641	11.01	484.3	384.54	0.0852	745.7	13.423	26.05	16.79	1.74
	16.68	36.28	73.72	0.00	0.0640	11.00	484.0	383.89	0.0852	741.9	13.354	25.89	16.71	1.74
	17.69	36.32	73.67	-0.00	0.0643	11.02	485.0	384.95	0.0850	744.5	13.402	26.00	16.76	1.74
	18.69	36.29	73.72	0.00	0.0642	11.03	485.1	384.78	0.0849	742.2	13.359	25.90	16.71	1.74
	19.69	36.32	73.69	0.00	0.0643	11.05	486.3	385.92	0.0844	735.7	13.243	25.69	16.58	1.74
	20.70	36.32	73.69	-0.00	0.0643	11.06	486.7	386.23	0.0844	737.2	13.270	25.74	16.61	1.74
	21.68	36.32	73.69	-0.00	0.0643	11.06	486.8	386.32	0.0851	744.2	13.395	25.98	16.76	1.74
	22.68	36.29	73.69	0.00	0.0644	11.07	486.9	386.36	0.0852	746.3	13.433	26.05	16.80	1.74
	23.70	36.34	73.67	-0.00	0.0643	11.07	486.9	386.51	0.0845	738.7	13.296	25.80	16.64	1.74
	24.68	36.31	73.72	0.00	0.0643	11.06	486.6	386.00	0.0845	737.3	13.271	25.73	16.61	1.74
	25.68	36.32	73.67	0.00	0.0644	11.06	486.8	386.43	0.0850	740.2	13.323	25.85	16.67	1.74
	26.71	36.36	73.72	-0.00	0.0644	11.07	487.1	386.46	0.0849	742.4	13.363	25.91	16.72	1.74
	27.69	36.37	73.69	0.00	0.0643	11.06	486.8	386.35	0.0855	748.1	13.467	26.13	16.84	1.74
	28.69	36.35	73.69	0.00	0.0644	11.06	486.8	386.33	0.0852	747.0	13.446	26.08	16.82	1.74
	29.70	36.41	73.69	-0.00	0.0644	11.07	487.1	386.64	0.0850	742.3	13.362	25.93	16.72	1.74
	30.78	36.38	73.64	-0.00	0.0644	11.08	487.6	387.29	0.0853	745.4	13.417	26.05	16.78	1.74
	31.70	36.37	73.69	-0.00	0.0643	11.06	486.7	386.29	0.0865	762.8	13.730	26.64	17.15	1.74
	32.70	36.42	73.69	-0.00	0.0643	11.08	487.7	387.12	0.0863	761.3	13.704	26.59	17.12	1.74
	33.68	36.38	73.67	0.00	0.0643	11.04	485.9	385.76	0.0865	764.9	13.767	26.72	17.19	1.74
	34.69	36.35	73.72	-0.00	0.0643	11.03	485.5	385.16	0.0870	770.0	13.860	26.88	17.30	1.74
	35.69	36.37	73.69	-0.00	0.0642	11.05	486.4	386.01	0.0864	762.0	13.716	26.61	17.13	1.74
	36.68	36.34	73.69	0.00	0.0642	11.03	485.2	385.02	0.0868	766.5	13.797	26.76	17.22	1.74
	37.67	36.40	73.69	0.00	0.0642	11.03	485.2	385.10	0.0866	764.5	13.762	26.70	17.19	1.74
	38.67	36.41	73.69	0.00	0.0641	11.01	484.2	384.36	0.0866	765.1	13.771	26.72	17.20	1.74
	39.67	36.41	73.67	0.00	0.0641	11.01	484.6	384.77	0.0869	767.7	13.818	26.82	17.25	1.74
	40.69	36.42	73.67	0.00	0.0641	11.00	484.1	384.40	0.0865	764.1	13.754	26.70	17.18	1.74
	41.68	36.43	73.69	0.00	0.0641	10.99	483.7	383.94	0.0860	757.2	13.630	26.45	17.04	1.75
	42.68	36.42	73.67	0.00	0.0642	11.02	484.9	385.04	0.0865	758.3	13.650	26.49	17.06	1.74
	43.68	36.42	73.67	0.00	0.0642	11.03	485.3	385.37	0.0870	768.5	13.833	26.85	17.27	1.74
	44.69	36.42	73.72	-0.00	0.0642	11.04	485.6	385.29	0.0868	765.4	13.778	26.72	17.21	1.74
	45.69	36.41	73.72	0.00	0.0641	11.01	484.5	384.43	0.0877	778.2	14.008	27.17	17.47	1.74
	46.67	36.42	73.72	0.00	0.0641	11.00	484.0	384.03	0.0883	788.0	14.184	27.51	17.67	1.75
	47.69	36.41	73.69	-0.00	0.0640	10.99	483.4	383.70	0.0884	788.4	14.192	27.54	17.67	1.75
	48.70	36.41	73.69	-0.00	0.0640	10.97	482.8	383.21	0.0888	797.8	14.361	27.86	17.86	1.74
	49.69	36.41	73.69	0.00	0.0638	10.92	480.6	381.46	0.0903	817.8	14.721	28.56	18.26	1.74
	50.68	36.43	73.72	0.00	0.0637	10.93	480.9	381.63	0.0911	820.5	14.769	28.65	18.31	1.74
	51.68	36.45	73.69	0.00	0.0638	10.96	482.4	382.99	0.0897	803.1	14.455	28.05	17.97	1.75
	52.70	36.44	73.69	0.00	0.0637	10.93	481.0	381.80	0.0898	808.6	14.555	28.24	18.08	1.75
	53.68	36.43	73.69	0.00	0.0638	10.95	481.9	382.51	0.0892	800.5	14.409	27.96	17.92	1.75
	54.69	36.44	73.69	0.00	0.0638	10.94	481.4	382.12	0.0896	804.5	14.480	28.10	18.00	1.75
	55.69	36.45	73.69	0.00	0.0638	10.93	481.1	381.94	0.0906	817.2	14.710	28.54	18.25	1.75
	56.69	36.43	73.72	0.00	0.0638	10.92	480.4	381.17	0.0910	825.7	14.863	28.83	18.41	1.75
	57.69	36.43	73.67	0.00	0.0638	10.95	481.8	382.61	0.0910	826.6	14.878	28.88	18.43	1.75
	58.69	36.43	73.69	-0.00	0.0637	10.93	480.7	381.58	0.0909	822.7	14.808	28.73	18.35	1.75
	59.70	36.43	73.72	-0.00	0.0638	10.95	481.6	382.16	0.0913	829.7	14.935	28.97	18.49	1.75
	60.70	36.45	73.69	-0.00	0.0637	10.91	480.0	381.05	0.0920	841.4	15.145	29.39	18.71	1.75
	61.71	36.43	73.69	-0.00	0.0637	10.92	480.4	381.37	0.0916	832.5	14.984	29.08	18.54	1.74
	62.68	36.46	73.69	0.00	0.0637	10.93	481.0	381.84	0.0917	834.2	15.015	29.14	18.57	1.75
	63.77	36.47	73.69	0.00	0.0637	10.94	481.3	382.08	0.0917	830.3	14.945	29.00	18.50	1.75
	64.68	36.46	73.67	0.00	0.0637	10.93	480.9	381.91	0.0920	839.4	15.110	29.33	18.67	1.75
	65.77	36.47	73.69	-0.00	0.0638	10.95	481.7	382.46	0.0916	833.7	15.007	29.12	18.57	1.75
	66.69	36.43	73.69	-0.00	0.0637	10.94	481.2	382.01	0.0923	840.9	15.136	29.37	18.70	1.75
	67.69	36.44	73.67	0.00	0.0637	10.92	480.7	381.70	0.0924	844.9	15.208	29.52	18.78	1.75
	68.67	36.47	73.69	0.00	0.0637	10.91	480.1	381.15	0.0918	837.6	15.078	29.26	18.64	1.75
	69.69	36.46	73.69	-0.00	0.0636	10.90	479.8	380.91	0.0917	833.9	15.010	29.13	18.57	1.75
	70.68	36.44	73.67	0.00	0.0636	10.91	479.9	381.06	0.0919	836.9	15.065	29.24	18.63	1.75
	71.68	36.47	73.72	-0.00	0.0636	10.90	479.7	380.71	0.0920	838.7	15.097	29.29	18.66	1.75
	72.70	36.46	73.67	0.00	0.0637	10.92	480.4	381.55	0.0924	843.6	15.184	29.48	18.75	1.75
	73.68	36.47	73.69	0.00	0.0636	10.90	479.7	380.84	0.0924	845.4	15.217	29.53	18.79	1.75
	74.71	36.52	73.72	-0.00	0.0635	10.88	478.9	380.11	0.0934	854.7	15.385	29.85	18.97	1.75
	75.69	36.50	73.69	-0.00	0.0636	10.89	479.0	380.28	0.0937	864.8	15.566	30.21	19.15	1.75
	76.69	36.44	73.67	-0.00	0.0636	10.89	479.2	380.54	0.0930	853.5	15.363	29.82	18.94	1.75
	77.69	36.49	73.69	0.00	0.0636	10.91	480.0	381.06	0.0931	853.9	15.371	29.83	18.95	1.75
	78.69	36.52	73.69	-0.00	0.0635	10.89	479.3	380.61	0.0936	862.0	15.516	30.12	19.10	1.75
	79.69	36.46	73.67	0.00	0.0636	10.90	479.7	381.00	0.0940	862.9	15.533	30.15	19.12	1.75
	80.68	36.52	73.67	-0.00	0.0637	10.91	479.9	381.20	0.0944	872.2	15.700	30.48	19.29	1.75
	81.70	36.51	73.69	-0.00	0.0636	10.89	479.2	380.52	0.0940	866.3	15.594	30.27	19.18	1.75
	82.67	36.54	73.67	0.00	0.0636	10.89	479.3	380.75	0.0942	869.0	15.643	30.37	19.23	1.75
	83.68	36.53	73.67	0.00	0.0633	10.83	476.3	378.35	0.0951	882.9	15.892	30.86	19.49	1.75
	84.68	36.54	73.67	0.00	0.0633	10.86	477.8	379.53	0.0953	883.8	15.909	30.89	19.50	1.75
	85.67	36.54	73.69	0.00	0.0632	10.83	476.6	378.49	0.0959	891.3	16.043	31.14	19.64	1.75
	86.69	36.56	73.69	0.00	0.0634	10.87	478.1	379.67	0.0952	880.7	15.852	30.77	19.45	1.75
	87.69	36.55	73.69	0.00	0.0632	10.83	476.3	378.24	0.0963	896.8	16.143	31.34	19.74	1.75
	88.69	36.55	73.72	0.00	0.0632	10.80	475.1	377.15	0.0960	896.8	16.142	31.32	19.74	1.75
	89.69	36.56	73.72	-0.00	0.0631	10.80	475.4	377.38	0.0960	898.7	16.176	31.39	19.77	1.75
	90.68	36.56	73.67	0.00	0.0631	10.78	474.3	376.78	0.0965	901.0	16.217	31.49	19.82	1.75
	91.70	36.56	73.67	0.00	0.0630	10.77	474.1	376.62	0.0966	904.8	16.287	31.63	19.88	1.75
	92.68	36.59	73.69	0.00	0.0631	10.79	474.7	376.98	0.0967	903.9	16.270	31.59	19.87	1.75
	93.76	36.58	73.69	0.00	0.0631	10.78	474.4	376.78	0.0967	905.8	16.304	31.65	19.90	1.75
	94.68	36.59	73.69	0.00	0.0632	10.80	475.4	377.54	0.0968	906.6	16.319	31.68	19.92	1.75
	95.69	36.59	73.67	0.00	0.0631	10.79	474.9	377.33	0.0961	899.4	16.190	31.44	19.79	1.75
	96.69	36.61	73.72	-0.00	0.0631	10.80	475.1	377.20	0.0961	895.4	16.118	31.28	19.72	1.75
	97.67	36.59	73.69	0.00	0.0632	10.79	474.8	377.09	0.0952	894.6	16.103	31.26	19.70	1.75
	98.70	36.61	73.69	-0.00	0.0632	10.80	475.3	377.55	0.0953	884.9	15.928	30.92	19.53	1.75
	99.68	36.61	73.72	-0.00	0.0631	10.79	474.9	377.06	0.0964	899.4	16.190	31.42	19.79	1.75
	100.70	36.61	73.69	-0.00	0.0628	10.73	472.0	374.92	0.0978	919.5	16.552	32.14	20.15	1.75
	101.70	36.62	73.69	0.00	0.0630	10.77	473.7	376.28	0.0969	913.2	16.438	31.92	20.04	1.75
	102.69	36.65	73.67	0.00	0.0631	10.79	474.9	377.38	0.0970	909.3	16.367	31.79	19.97	1.75
	103.68	36.62	73.69	0.00	0.0632	10.80	475.0	377.31	0.0962	900.6	16.211	31.48	19.81	1.75
	104.69	36.65	73.67	0.00	0.0632	10.82	476.0	378.23	0.0954	882.6	15.887	30.86	19.49	1.76
	105.67	36.65	73.69	0.00	0.0633	10.83	476.4	378.42	0.0947	884.4	15.918	30.91	19.52	1.75
	106.75	36.65	73.67	0.00	0.0633	10.83	476.5	378.65	0.0961	891.9	16.054	31.18	19.66	1.75
	107.69	36.62	73.64	0.00	0.0634	10.86	478.1	379.98	0.0959	899.0	16.182	31.44	19.78	1.75
	108.67	36.65	73.69	0.00	0.0634	10.85	477.5	379.30	0.0949	881.7	15.870	30.82	19.47	1.75
	109.70	36.63	73.69	-0.00	0.0632	10.83	476.3	378.36	0.0962	895.1	16.112	31.29	19.71	1.75
	110.68	36.62	73.69	0.00	0.0632	10.81	475.8	377.91	0.0964	899.8	16.196	31.45	19.80	1.76
	111.70	36.65	73.69	-0.00	0.0632	10.81	475.7	377.92	0.0962	899.9	16.198	31.45	19.80	1.76
	112.68	36.65	73.67	-0.00	0.0632	10.81	475.6	377.94	0.0970	908.8	16.359	31.78	19.96	1.75
	113.68	36.65	73.74	-0.00	0.0632	10.81	475.4	377.42	0.0972	911.3	16.403	31.83	20.00	1.76
	114.71	36.64	73.67	-0.00	0.0631	10.79	474.8	377.26	0.0975	918.1	16.525	32.10	20.12	1.75
	115.69	36.65	73.69	0.00	0.0631	10.78	474.3	376.81	0.0976	918.2	16.527	32.09	20.13	1.76
	116.70	36.64	73.69	-0.00	0.0631	10.79	474.7	377.08	0.0972	915.5	16.480	32.00	20.08	1.76
	117.69	36.62	73.69	-0.00	0.0632	10.79	474.7	377.09	0.0976	920.5	16.569	32.17	20.16	1.76
	118.69	36.65	73.69	0.00	0.0631	10.80	475.1	377.42	0.0978	922.0	16.597	32.23	20.19	1.76
	119.68	36.64	73.69	-0.00	0.0630	10.77	473.8	376.36	0.0978	922.7	16.608	32.25	20.20	1.76
	120.68	36.67	73.69	0.00	0.0631	10.79	474.9	377.30	0.0985	930.0	16.739	32.51	20.33	1.76
	121.67	36.64	73.67	0.00	0.0631	10.78	474.4	376.97	0.0984	930.7	16.753	32.54	20.34	1.76
	122.68	36.68	73.69	0.00	0.0631	10.78	474.3	376.82	0.0982	929.6	16.734	32.50	20.33	1.76
	123.66	36.64	73.67	0.00	0.0631	10.78	474.2	376.79	0.0981	927.2	16.689	32.42	20.28	1.76
	124.69	36.71	73.69	0.00	0.0631	10.78	474.5	377.02	0.0985	932.9	16.791	32.61	20.39	1.76
	125.67	36.68	73.72	0.00	0.0629	10.75	472.9	375.56	0.0986	935.0	16.829	32.67	20.42	1.76
	126.69	36.64	73.69	0.00	0.0632	10.80	475.4	377.63	0.0978	921.8	16.592	32.22	20.19	1.76
	127.70	36.62	73.69	-0.00	0.0630	10.78	474.3	376.71	0.0993	944.3	16.997	33.00	20.58	1.76
