Jul 20 2015 at 12:39:20
Frequency: 1.00Hz.
CO2
Zero:  Value:0.95  Date:18 Mar 2005	 at 07:22:33	
Span:  Value:1.00  Date:18 Mar 2005	 at 07:25:09	
H2O
Zero:  Value:0.71  Date:18 Mar 2005	 at 07:52:31	
Span:  Value:0.99  Date:18 Mar 2005	 at 11:44:01	
	Relative Time	Temperature	Pressure	Aux Input	CO2 Absorptance	CO2 mmol/m3	CO2 mg/m3	CO2 umol/mol	H2O Absorptance	H2O mmol/m3	H2O g/m3	H2O mmol/mol	H2O(°C)	Cooler Voltage
	0.55	37.36	73.69	-0.00	0.0649	11.19	492.2	391.87	0.0906	811.5	14.606	28.43	18.18	1.79
	1.53	37.34	73.67	0.00	0.0648	11.19	492.2	391.96	0.0900	807.1	14.529	28.28	18.09	1.79
	2.53	37.33	73.67	0.00	0.0647	11.15	490.6	390.69	0.0907	821.7	14.790	28.79	18.38	1.79
	3.60	37.34	73.69	0.00	0.0651	11.21	493.5	392.85	0.0864	763.7	13.746	26.75	17.22	1.79
	4.52	37.34	73.67	0.00	0.0649	11.18	491.9	391.77	0.0870	781.8	14.072	27.40	17.59	1.79
	5.52	37.36	73.69	0.00	0.0649	11.18	491.9	391.67	0.0877	780.0	14.039	27.32	17.55	1.79
	6.52	37.36	73.61	0.00	0.0647	11.14	490.2	390.69	0.0903	811.8	14.612	28.47	18.19	1.79
	7.52	37.36	73.67	0.00	0.0647	11.14	490.3	390.53	0.0893	805.0	14.489	28.21	18.05	1.79
	8.52	37.38	73.67	0.00	0.0648	11.15	490.6	390.81	0.0884	788.5	14.194	27.64	17.73	1.79
	9.53	37.38	73.67	0.00	0.0649	11.18	491.8	391.71	0.0876	784.2	14.116	27.48	17.64	1.79
	10.53	37.38	73.69	0.00	0.0649	11.16	491.0	390.99	0.0880	796.5	14.336	27.90	17.88	1.79
	11.54	37.38	73.69	-0.00	0.0649	11.18	491.7	391.52	0.0877	774.1	13.934	27.12	17.43	1.79
	12.54	37.35	73.67	0.00	0.0647	11.14	490.4	390.55	0.0886	790.9	14.236	27.72	17.77	1.79
	13.54	37.39	73.69	-0.00	0.0648	11.16	491.2	391.11	0.0878	780.0	14.039	27.33	17.55	1.79
	14.54	37.38	73.69	0.00	0.0648	11.17	491.4	391.31	0.0877	769.2	13.845	26.95	17.33	1.79
	15.52	37.40	73.67	-0.00	0.0648	11.15	490.7	390.86	0.0884	790.1	14.222	27.69	17.76	1.79
	16.54	37.39	73.69	0.00	0.0648	11.16	491.2	391.15	0.0871	774.1	13.935	27.12	17.43	1.79
	17.54	37.40	73.67	-0.00	0.0648	11.16	491.1	391.17	0.0878	778.5	14.013	27.29	17.52	1.79
	18.53	37.37	73.69	0.00	0.0649	11.18	491.7	391.52	0.0863	763.0	13.734	26.73	17.20	1.79
	19.53	37.40	73.69	0.00	0.0649	11.18	491.9	391.68	0.0859	754.9	13.588	26.45	17.04	1.79
	20.51	37.43	73.67	0.00	0.0648	11.17	491.4	391.49	0.0863	759.2	13.666	26.61	17.13	1.79
	21.53	37.46	73.67	0.00	0.0648	11.17	491.6	391.63	0.0860	756.6	13.619	26.52	17.08	1.79
	22.53	37.43	73.67	0.00	0.0649	11.18	492.0	391.91	0.0856	751.7	13.531	26.35	16.97	1.79
	23.52	37.42	73.67	0.00	0.0650	11.21	493.1	392.77	0.0851	743.2	13.378	26.05	16.79	1.79
	24.52	37.44	73.72	0.00	0.0650	11.19	492.4	391.99	0.0853	747.6	13.456	26.19	16.88	1.79
	25.52	37.45	73.69	0.00	0.0650	11.21	493.4	392.99	0.0853	746.5	13.437	26.16	16.86	1.79
	26.54	37.45	73.67	-0.00	0.0650	11.20	492.7	392.50	0.0853	747.1	13.448	26.19	16.88	1.79
	27.52	37.39	73.67	-0.00	0.0649	11.20	492.6	392.40	0.0850	741.1	13.339	25.97	16.74	1.79
	28.52	37.44	73.69	0.00	0.0650	11.20	492.7	392.37	0.0853	745.7	13.423	26.13	16.85	1.79
	29.55	37.47	73.67	-0.00	0.0650	11.19	492.4	392.33	0.0849	741.8	13.353	26.01	16.76	1.79
	30.53	37.45	73.64	-0.00	0.0650	11.20	492.9	392.84	0.0848	739.9	13.318	25.95	16.72	1.79
	31.51	37.44	73.67	0.00	0.0650	11.19	492.5	392.36	0.0847	737.0	13.267	25.84	16.66	1.79
	32.53	37.45	73.69	0.00	0.0652	11.25	495.2	394.36	0.0849	741.6	13.348	25.99	16.76	1.79
	33.51	37.47	73.69	0.00	0.0651	11.23	493.9	393.38	0.0848	740.3	13.326	25.94	16.73	1.79
	34.60	37.46	73.67	0.00	0.0650	11.21	493.4	393.11	0.0847	739.2	13.306	25.91	16.71	1.79
	35.52	37.45	73.69	0.00	0.0651	11.22	493.6	393.10	0.0848	739.5	13.311	25.91	16.71	1.79
	36.52	37.45	73.69	0.00	0.0651	11.22	493.9	393.32	0.0849	741.6	13.350	25.99	16.76	1.79
	37.53	37.46	73.69	0.00	0.0651	11.23	494.2	393.63	0.0849	741.2	13.342	25.98	16.75	1.79
	38.53	37.47	73.69	0.00	0.0652	11.25	494.8	394.12	0.0851	742.3	13.362	26.01	16.78	1.79
	39.53	37.44	73.69	0.00	0.0652	11.26	495.5	394.64	0.0851	746.1	13.429	26.14	16.85	1.80
	40.55	37.47	73.69	-0.00	0.0652	11.27	495.7	394.80	0.0851	745.1	13.412	26.11	16.83	1.79
	41.54	37.47	73.67	-0.00	0.0653	11.26	495.5	394.83	0.0852	745.2	13.414	26.13	16.84	1.79
	42.54	37.45	73.69	0.00	0.0653	11.28	496.2	395.16	0.0853	746.4	13.436	26.16	16.86	1.79
	43.54	37.44	73.69	0.00	0.0653	11.28	496.2	395.13	0.0853	746.1	13.430	26.14	16.85	1.80
	44.52	37.45	73.69	0.00	0.0653	11.28	496.4	395.32	0.0852	746.7	13.440	26.17	16.87	1.80
	45.52	37.49	73.67	0.00	0.0654	11.29	496.9	395.90	0.0855	748.5	13.473	26.24	16.91	1.79
	46.53	37.49	73.67	0.00	0.0654	11.28	496.5	395.60	0.0854	748.4	13.471	26.24	16.90	1.80
	47.53	37.52	73.69	0.00	0.0653	11.28	496.2	395.26	0.0854	747.8	13.460	26.21	16.89	1.80
	48.52	37.49	73.64	0.00	0.0653	11.29	496.7	395.94	0.0855	749.9	13.498	26.30	16.94	1.79
	49.53	37.50	73.67	0.00	0.0653	11.27	496.0	395.25	0.0855	748.8	13.479	26.25	16.91	1.80
	50.53	37.52	73.69	-0.00	0.0653	11.27	495.7	394.85	0.0855	749.7	13.495	26.28	16.93	1.80
	51.59	37.51	73.64	0.00	0.0652	11.26	495.3	394.84	0.0856	749.9	13.499	26.30	16.94	1.79
	52.53	37.51	73.69	0.00	0.0653	11.27	496.0	395.13	0.0858	753.7	13.566	26.42	17.02	1.80
	53.51	37.49	73.69	0.00	0.0653	11.27	496.1	395.14	0.0859	755.2	13.593	26.47	17.05	1.80
	54.52	37.49	73.69	0.00	0.0653	11.28	496.1	395.17	0.0861	756.8	13.623	26.52	17.08	1.80
	55.54	37.57	73.69	-0.00	0.0653	11.27	496.1	395.24	0.0861	757.8	13.640	26.56	17.11	1.80
	56.53	37.53	73.67	0.00	0.0653	11.27	495.7	395.01	0.0860	756.7	13.621	26.53	17.08	1.80
	57.53	37.49	73.64	-0.00	0.0653	11.27	495.9	395.25	0.0860	756.5	13.617	26.53	17.07	1.80
	58.53	37.57	73.69	0.00	0.0652	11.26	495.3	394.62	0.0860	754.5	13.580	26.45	17.04	1.80
	59.52	37.54	73.67	0.00	0.0653	11.27	496.0	395.26	0.0862	759.7	13.674	26.64	17.14	1.80
	60.61	37.54	73.67	-0.00	0.0653	11.28	496.5	395.68	0.0869	766.6	13.799	26.88	17.29	1.80
	61.54	37.54	73.67	-0.00	0.0653	11.28	496.3	395.49	0.0866	763.9	13.751	26.79	17.23	1.80
	62.54	37.57	73.67	-0.00	0.0654	11.29	496.7	395.85	0.0869	768.2	13.828	26.94	17.32	1.80
	63.54	37.57	73.67	-0.00	0.0654	11.28	496.5	395.71	0.0876	770.4	13.867	27.02	17.37	1.80
	64.52	37.54	73.67	-0.00	0.0654	11.31	497.5	396.45	0.0877	780.5	14.049	27.37	17.57	1.80
	65.54	37.57	73.69	-0.00	0.0653	11.28	496.4	395.51	0.0871	770.6	13.870	27.01	17.37	1.80
	66.60	37.57	73.69	0.00	0.0654	11.29	496.7	395.69	0.0871	771.6	13.890	27.05	17.39	1.80
	67.55	37.54	73.69	0.00	0.0653	11.28	496.3	395.38	0.0869	768.9	13.840	26.95	17.33	1.80
	68.53	37.57	73.67	-0.00	0.0654	11.29	496.9	396.02	0.0869	768.5	13.833	26.95	17.33	1.80
	69.55	37.53	73.67	0.00	0.0654	11.29	496.8	395.90	0.0869	768.1	13.826	26.93	17.32	1.80
	70.53	37.56	73.69	0.00	0.0654	11.29	496.8	395.76	0.0870	769.8	13.856	26.98	17.35	1.80
	71.51	37.59	73.64	0.00	0.0654	11.28	496.5	395.88	0.0869	767.8	13.821	26.94	17.31	1.80
	72.53	37.56	73.67	0.00	0.0654	11.29	496.6	395.80	0.0869	768.6	13.835	26.95	17.33	1.80
	73.54	37.60	73.69	0.00	0.0653	11.29	496.6	395.66	0.0870	770.5	13.869	27.01	17.37	1.80
	74.52	37.55	73.69	0.00	0.0654	11.28	496.4	395.48	0.0871	771.4	13.885	27.04	17.39	1.80
	75.52	37.59	73.67	0.00	0.0653	11.28	496.2	395.54	0.0874	776.6	13.979	27.24	17.49	1.80
	76.55	37.60	73.69	-0.00	0.0654	11.28	496.3	395.46	0.0876	777.1	13.988	27.25	17.51	1.80
	77.52	37.58	73.69	0.00	0.0654	11.29	496.7	395.74	0.0875	774.9	13.949	27.17	17.46	1.80
	78.53	37.61	73.67	0.00	0.0653	11.28	496.2	395.53	0.0874	776.1	13.970	27.22	17.49	1.80
	79.53	37.59	73.69	0.00	0.0653	11.28	496.4	395.51	0.0876	779.7	14.034	27.33	17.56	1.80
	80.53	37.61	73.69	-0.00	0.0653	11.28	496.5	395.62	0.0878	780.9	14.057	27.38	17.58	1.80
	81.53	37.62	73.69	-0.00	0.0653	11.28	496.2	395.43	0.0879	781.1	14.059	27.39	17.59	1.80
	82.53	37.60	73.67	-0.00	0.0653	11.28	496.2	395.54	0.0880	782.6	14.087	27.45	17.62	1.80
	83.54	37.61	73.69	0.00	0.0652	11.27	495.8	395.08	0.0878	782.1	14.077	27.42	17.61	1.80
	84.54	37.60	73.69	-0.00	0.0653	11.28	496.1	395.30	0.0879	782.7	14.089	27.44	17.62	1.80
	85.54	37.60	73.69	0.00	0.0653	11.26	495.3	394.63	0.0879	780.1	14.041	27.35	17.57	1.80
	86.52	37.61	73.67	0.00	0.0652	11.27	496.0	395.36	0.0880	783.9	14.111	27.50	17.64	1.80
	87.53	37.64	73.67	0.00	0.0653	11.27	495.7	395.17	0.0883	785.7	14.142	27.56	17.68	1.80
	88.52	37.66	73.67	0.00	0.0653	11.27	495.9	395.38	0.0885	791.9	14.254	27.78	17.81	1.80
	89.53	37.64	73.67	0.00	0.0653	11.27	496.0	395.43	0.0889	794.9	14.308	27.88	17.87	1.80
	90.51	37.64	73.69	0.00	0.0653	11.27	496.0	395.23	0.0888	793.9	14.289	27.84	17.85	1.80
	91.60	37.66	73.67	-0.00	0.0653	11.27	495.9	395.36	0.0887	794.0	14.291	27.85	17.85	1.80
	92.54	37.62	73.69	0.00	0.0653	11.27	496.0	395.27	0.0887	792.0	14.255	27.77	17.81	1.80
	93.52	37.64	73.69	0.00	0.0653	11.28	496.4	395.62	0.0890	797.2	14.349	27.95	17.91	1.80
	94.52	37.66	73.69	-0.00	0.0653	11.27	495.8	395.12	0.0887	793.3	14.280	27.82	17.84	1.80
	95.53	37.65	73.69	-0.00	0.0653	11.27	495.8	395.15	0.0888	792.6	14.268	27.79	17.82	1.80
	96.52	37.64	73.64	-0.00	0.0653	11.27	496.0	395.51	0.0889	798.3	14.370	28.01	17.93	1.80
	97.53	37.66	73.67	0.00	0.0653	11.26	495.5	395.03	0.0888	792.0	14.257	27.78	17.81	1.80
	98.53	37.66	73.69	-0.00	0.0653	11.27	496.0	395.26	0.0890	796.0	14.328	27.91	17.89	1.80
	99.53	37.66	73.64	0.00	0.0653	11.27	495.8	395.39	0.0891	800.3	14.406	28.08	17.98	1.80
	100.53	37.65	73.67	0.00	0.0653	11.27	496.0	395.43	0.0893	799.7	14.395	28.05	17.96	1.80
	101.54	37.66	73.69	-0.00	0.0653	11.28	496.4	395.58	0.0893	800.2	14.404	28.06	17.97	1.80
	102.54	37.65	73.69	-0.00	0.0653	11.27	495.9	395.18	0.0892	799.1	14.384	28.02	17.95	1.80
	103.52	37.66	73.69	0.00	0.0653	11.28	496.4	395.61	0.0895	803.5	14.462	28.17	18.04	1.80
	104.54	37.67	73.67	0.00	0.0653	11.28	496.4	395.77	0.0894	801.8	14.433	28.13	18.01	1.80
	105.60	37.68	73.69	-0.00	0.0653	11.28	496.2	395.45	0.0895	803.0	14.454	28.16	18.03	1.80
	106.52	37.67	73.69	0.00	0.0653	11.27	496.1	395.36	0.0896	804.7	14.485	28.22	18.06	1.80
	107.53	37.68	73.69	0.00	0.0653	11.28	496.4	395.60	0.0895	804.5	14.480	28.21	18.06	1.80
	108.55	37.68	73.67	0.00	0.0654	11.28	496.5	395.87	0.0897	806.4	14.515	28.29	18.10	1.80
	109.61	37.70	73.69	0.00	0.0653	11.28	496.3	395.56	0.0897	806.3	14.514	28.28	18.10	1.80
	110.53	37.67	73.72	0.00	0.0653	11.28	496.2	395.31	0.0897	806.2	14.511	28.26	18.09	1.80
	111.53	37.67	73.67	0.00	0.0653	11.27	496.1	395.49	0.0897	806.2	14.512	28.28	18.09	1.80
	112.52	37.70	73.69	0.00	0.0653	11.26	495.6	395.01	0.0895	804.1	14.473	28.20	18.05	1.80
	113.54	37.68	73.67	-0.00	0.0653	11.27	496.0	395.46	0.0896	805.4	14.497	28.25	18.08	1.81
	114.52	37.66	73.66	0.00	0.0653	11.28	496.1	395.52	0.0899	809.5	14.570	28.39	18.16	1.81
	115.53	37.68	73.69	-0.00	0.0653	11.28	496.3	395.52	0.0897	807.6	14.537	28.32	18.12	1.80
	116.52	37.70	73.69	0.00	0.0653	11.28	496.2	395.49	0.0903	812.0	14.617	28.48	18.21	1.80
	117.53	37.70	73.67	0.00	0.0653	11.28	496.2	395.65	0.0910	824.1	14.834	28.91	18.44	1.80
	118.53	37.74	73.69	-0.00	0.0653	11.26	495.6	395.08	0.0906	812.8	14.631	28.51	18.23	1.80
	119.53	37.70	73.67	-0.00	0.0653	11.27	496.0	395.50	0.0901	814.2	14.656	28.57	18.25	1.81
