Jul 22 2015 at 9:22:35
Frequency: 1.00Hz.
CO2
Zero:  Value:0.95  Date:18 Mar 2005	 at 07:22:33	
Span:  Value:1.00  Date:18 Mar 2005	 at 07:25:09	
H2O
Zero:  Value:0.71  Date:18 Mar 2005	 at 07:52:31	
Span:  Value:0.99  Date:18 Mar 2005	 at 11:44:01	
	Relative Time	Temperature	Pressure	Aux Input	CO2 Absorptance	CO2 mmol/m3	CO2 mg/m3	CO2 umol/mol	H2O Absorptance	H2O mmol/m3	H2O g/m3	H2O mmol/mol	H2O(°C)	Cooler Voltage
	0.05	20.31	73.48	-0.00	0.0701	12.38	544.8	411.12	0.0700	557.8	10.041	18.52	11.49	1.52
	1.04	20.31	73.48	-0.00	0.0700	12.39	545.2	411.38	0.0705	559.1	10.064	18.56	11.52	1.52
	2.06	20.31	73.48	-0.00	0.0700	12.34	542.9	409.71	0.0710	568.9	10.241	18.89	11.79	1.51
	3.04	20.32	73.48	0.00	0.0698	12.31	541.8	408.84	0.0717	573.1	10.317	19.03	11.90	1.51
	4.06	20.32	73.48	-0.00	0.0699	12.33	542.7	409.50	0.0724	585.9	10.546	19.45	12.23	1.51
	5.04	20.32	73.48	0.00	0.0699	12.31	541.9	408.89	0.0721	583.5	10.503	19.37	12.17	1.51
	6.05	20.31	73.48	-0.00	0.0697	12.30	541.2	408.39	0.0724	585.5	10.539	19.44	12.22	1.51
	7.04	20.33	73.48	0.00	0.0697	12.28	540.3	407.77	0.0721	582.5	10.484	19.34	12.15	1.51
	8.03	20.33	73.48	0.00	0.0695	12.26	539.3	406.98	0.0718	580.3	10.445	19.27	12.09	1.51
	9.03	20.33	73.48	0.00	0.0697	12.26	539.3	406.97	0.0722	582.6	10.487	19.35	12.15	1.51
	10.05	20.32	73.48	-0.00	0.0696	12.25	539.0	406.77	0.0718	578.9	10.420	19.22	12.05	1.51
	11.03	20.32	73.48	0.00	0.0695	12.25	538.8	406.59	0.0717	577.5	10.395	19.17	12.02	1.51
	12.07	20.33	73.48	-0.00	0.0694	12.23	538.1	406.09	0.0718	577.7	10.399	19.18	12.02	1.51
	13.04	20.31	73.48	0.00	0.0694	12.20	536.6	404.93	0.0723	584.3	10.517	19.40	12.19	1.51
	14.07	20.33	73.46	-0.00	0.0693	12.18	535.9	404.57	0.0729	590.8	10.635	19.63	12.36	1.51
	15.05	20.31	73.48	-0.00	0.0691	12.14	534.2	403.13	0.0733	594.9	10.708	19.75	12.47	1.51
	16.05	20.33	73.51	0.00	0.0690	12.12	533.4	402.42	0.0737	598.5	10.773	19.87	12.56	1.51
	17.05	20.33	73.48	-0.00	0.0689	12.10	532.5	401.86	0.0727	589.5	10.612	19.58	12.33	1.51
	18.07	20.35	73.51	-0.00	0.0689	12.10	532.6	401.80	0.0726	585.6	10.541	19.44	12.23	1.51
	19.05	20.33	73.48	-0.00	0.0690	12.10	532.4	401.77	0.0733	595.9	10.725	19.79	12.49	1.51
	20.06	20.35	73.46	-0.00	0.0689	12.09	531.8	401.49	0.0729	591.8	10.652	19.66	12.39	1.51
	21.04	20.37	73.46	0.00	0.0687	12.08	531.4	401.22	0.0727	591.1	10.639	19.64	12.37	1.51
	22.06	20.35	73.48	-0.00	0.0687	12.06	530.6	400.43	0.0731	593.3	10.679	19.70	12.43	1.51
	23.04	20.35	73.48	0.00	0.0687	12.05	530.2	400.15	0.0732	594.3	10.698	19.73	12.45	1.51
	24.04	20.35	73.48	0.00	0.0688	12.06	530.7	400.51	0.0738	601.4	10.825	19.97	12.63	1.51
	25.05	20.35	73.48	-0.00	0.0688	12.07	531.3	400.96	0.0740	604.9	10.887	20.09	12.72	1.51
	26.05	20.35	73.48	-0.00	0.0687	12.06	530.5	400.35	0.0741	605.1	10.891	20.09	12.73	1.51
	27.04	20.37	73.48	0.00	0.0687	12.06	530.5	400.37	0.0747	609.8	10.976	20.25	12.85	1.51
	28.05	20.33	73.46	0.00	0.0687	12.06	530.5	400.47	0.0748	616.7	11.101	20.49	13.02	1.51
	29.05	20.37	73.48	-0.00	0.0686	12.04	529.6	399.73	0.0745	611.5	11.007	20.31	12.89	1.51
	30.12	20.37	73.48	-0.00	0.0686	12.02	528.9	399.20	0.0742	606.6	10.919	20.15	12.77	1.51
	31.03	20.37	73.46	0.00	0.0685	12.00	528.0	398.62	0.0746	609.8	10.976	20.26	12.85	1.51
	32.04	20.37	73.48	0.00	0.0685	12.01	528.2	398.68	0.0748	614.1	11.055	20.39	12.95	1.51
	33.02	20.37	73.51	0.00	0.0682	11.92	524.6	395.83	0.0758	622.5	11.204	20.66	13.16	1.51
	34.05	20.38	73.48	0.00	0.0685	11.98	527.2	397.90	0.0753	618.9	11.140	20.55	13.07	1.51
	35.05	20.38	73.46	0.00	0.0684	11.99	527.7	398.41	0.0753	621.1	11.180	20.64	13.13	1.52
	36.05	20.40	73.48	0.00	0.0682	11.94	525.5	396.66	0.0758	627.2	11.289	20.83	13.28	1.51
	37.05	20.38	73.48	0.00	0.0682	11.93	524.7	396.06	0.0758	626.7	11.280	20.81	13.26	1.51
	38.05	20.40	73.46	0.00	0.0681	11.92	524.4	395.99	0.0759	627.8	11.300	20.86	13.29	1.51
	39.05	20.40	73.48	0.00	0.0681	11.92	524.6	396.01	0.0754	622.7	11.208	20.68	13.17	1.51
	40.05	20.40	73.48	0.00	0.0682	11.93	525.0	396.27	0.0754	622.5	11.205	20.67	13.16	1.52
	41.04	20.40	73.48	0.00	0.0681	11.93	525.0	396.27	0.0761	629.6	11.332	20.91	13.34	1.52
	42.06	20.40	73.48	-0.00	0.0680	11.89	523.0	394.76	0.0765	636.1	11.449	21.13	13.49	1.51
	43.04	20.40	73.48	0.00	0.0680	11.89	523.1	394.84	0.0763	633.5	11.404	21.04	13.43	1.51
	44.12	20.40	73.48	0.00	0.0680	11.89	523.2	394.92	0.0765	633.7	11.406	21.05	13.44	1.51
	45.04	20.40	73.48	0.00	0.0680	11.89	523.0	394.80	0.0767	637.4	11.473	21.17	13.53	1.51
	46.05	20.42	73.48	0.00	0.0680	11.89	523.3	395.03	0.0771	640.5	11.529	21.27	13.60	1.52
	47.03	20.42	73.48	0.00	0.0679	11.87	522.5	394.39	0.0778	651.8	11.733	21.65	13.87	1.52
	48.05	20.42	73.48	0.00	0.0679	11.88	522.8	394.61	0.0781	651.0	11.719	21.62	13.85	1.51
	49.03	20.42	73.48	0.00	0.0679	11.87	522.2	394.22	0.0779	651.1	11.721	21.63	13.86	1.51
	50.05	20.44	73.46	0.00	0.0678	11.85	521.5	393.81	0.0781	655.0	11.789	21.76	13.95	1.51
	51.04	20.42	73.48	-0.00	0.0677	11.82	520.3	392.74	0.0783	656.3	11.814	21.80	13.98	1.51
	52.06	20.42	73.48	-0.00	0.0676	11.81	519.5	392.18	0.0782	656.7	11.820	21.81	13.99	1.52
	53.04	20.43	73.48	-0.00	0.0675	11.77	517.7	390.81	0.0773	646.7	11.641	21.48	13.75	1.52
	54.05	20.43	73.48	-0.00	0.0676	11.80	519.3	392.06	0.0779	649.8	11.697	21.58	13.82	1.51
	55.04	20.42	73.46	-0.00	0.0676	11.82	519.9	392.58	0.0784	658.2	11.848	21.87	14.02	1.51
	56.05	20.43	73.48	-0.00	0.0676	11.80	519.4	392.08	0.0782	656.6	11.819	21.81	13.98	1.51
	57.03	20.43	73.51	0.00	0.0676	11.80	519.0	391.70	0.0782	656.8	11.822	21.81	13.99	1.51
	58.05	20.45	73.48	0.00	0.0673	11.75	516.8	390.19	0.0779	652.4	11.744	21.67	13.89	1.52
	59.05	20.45	73.48	-0.00	0.0673	11.73	516.1	389.64	0.0785	659.5	11.871	21.91	14.05	1.52
	60.11	20.45	73.48	0.00	0.0674	11.76	517.4	390.60	0.0789	664.5	11.962	22.07	14.17	1.51
	61.06	20.47	73.48	-0.00	0.0674	11.76	517.4	390.62	0.0790	668.0	12.025	22.19	14.25	1.51
	62.04	20.45	73.48	-0.00	0.0674	11.76	517.5	390.69	0.0791	667.8	12.021	22.18	14.25	1.52
	63.04	20.43	73.48	0.00	0.0674	11.77	517.7	390.81	0.0791	666.9	12.005	22.15	14.23	1.52
	64.04	20.43	73.48	-0.00	0.0673	11.75	517.0	390.32	0.0794	669.3	12.047	22.23	14.28	1.52
	65.05	20.45	73.48	0.00	0.0673	11.74	516.5	389.93	0.0796	673.9	12.130	22.39	14.39	1.52
	66.11	20.46	73.51	0.00	0.0671	11.69	514.4	388.21	0.0798	675.7	12.162	22.44	14.43	1.52
	67.06	20.47	73.48	-0.00	0.0671	11.69	514.4	388.40	0.0799	677.3	12.192	22.50	14.47	1.51
	68.06	20.47	73.48	-0.00	0.0671	11.69	514.5	388.48	0.0800	678.8	12.218	22.55	14.50	1.51
	69.06	20.47	73.48	-0.00	0.0671	11.69	514.4	388.35	0.0801	678.6	12.215	22.54	14.49	1.52
	70.06	20.47	73.48	-0.00	0.0670	11.67	513.7	387.84	0.0803	681.5	12.266	22.64	14.56	1.51
	71.06	20.47	73.48	0.00	0.0670	11.67	513.6	387.77	0.0802	682.3	12.282	22.67	14.58	1.52
	72.06	20.45	73.46	0.00	0.0670	11.66	513.2	387.61	0.0803	682.8	12.290	22.69	14.59	1.52
	73.06	20.48	73.48	0.00	0.0669	11.65	512.6	387.02	0.0802	682.3	12.281	22.67	14.58	1.52
	74.05	20.47	73.48	-0.00	0.0668	11.62	511.2	385.92	0.0810	692.8	12.471	23.02	14.82	1.51
	75.05	20.47	73.48	0.00	0.0668	11.61	510.7	385.55	0.0808	688.5	12.394	22.87	14.72	1.52
	76.05	20.50	73.51	0.00	0.0668	11.62	511.1	385.80	0.0809	689.1	12.404	22.89	14.73	1.52
	77.05	20.48	73.48	0.00	0.0668	11.62	511.1	385.92	0.0813	692.5	12.465	23.01	14.81	1.52
	78.05	20.49	73.48	-0.00	0.0668	11.61	511.0	385.85	0.0818	700.3	12.606	23.27	14.98	1.52
	79.06	20.48	73.46	-0.00	0.0666	11.58	509.5	384.79	0.0816	698.3	12.570	23.21	14.94	1.52
	80.04	20.50	73.48	0.00	0.0667	11.59	510.1	385.13	0.0816	699.7	12.594	23.25	14.97	1.52
	81.04	20.50	73.48	0.00	0.0666	11.58	509.6	384.80	0.0814	697.0	12.547	23.16	14.91	1.52
	82.04	20.50	73.46	0.00	0.0665	11.55	508.2	383.84	0.0812	694.6	12.503	23.09	14.86	1.52
	83.06	20.50	73.48	-0.00	0.0665	11.54	507.9	383.50	0.0813	693.5	12.483	23.04	14.83	1.52
	84.04	20.50	73.53	0.00	0.0665	11.54	508.0	383.30	0.0812	694.4	12.500	23.06	14.85	1.52
	85.05	20.50	73.48	0.00	0.0663	11.50	505.8	381.93	0.0816	698.4	12.572	23.20	14.94	1.52
	86.05	20.52	73.48	-0.00	0.0663	11.51	506.6	382.54	0.0818	702.3	12.642	23.34	15.03	1.52
	87.05	20.52	73.48	0.00	0.0662	11.49	505.5	381.74	0.0819	704.3	12.677	23.40	15.07	1.52
	88.05	20.50	73.48	-0.00	0.0662	11.48	505.2	381.44	0.0821	704.0	12.672	23.39	15.07	1.52
	89.12	20.50	73.48	-0.00	0.0662	11.48	505.3	381.53	0.0826	710.7	12.793	23.61	15.21	1.52
	90.04	20.52	73.48	-0.00	0.0662	11.48	505.0	381.30	0.0829	714.2	12.855	23.73	15.29	1.52
	91.04	20.52	73.48	0.00	0.0660	11.45	503.8	380.42	0.0825	712.7	12.828	23.68	15.26	1.52
	92.04	20.54	73.51	-0.00	0.0660	11.44	503.3	379.92	0.0824	707.9	12.742	23.51	15.15	1.52
	93.04	20.52	73.48	0.00	0.0661	11.46	504.1	380.69	0.0829	716.6	12.899	23.81	15.34	1.52
	94.10	20.52	73.48	0.00	0.0661	11.46	504.3	380.80	0.0831	717.4	12.913	23.84	15.36	1.52
	95.04	20.53	73.48	0.00	0.0661	11.46	504.1	380.67	0.0832	720.8	12.974	23.95	15.44	1.52
	96.03	20.54	73.48	-0.00	0.0660	11.45	503.7	380.41	0.0833	721.5	12.988	23.97	15.45	1.52
	97.05	20.53	73.48	0.00	0.0660	11.43	503.1	379.89	0.0837	725.7	13.063	24.11	15.54	1.52
	98.05	20.54	73.48	0.00	0.0660	11.44	503.5	380.25	0.0836	726.4	13.075	24.14	15.56	1.52
	99.05	20.55	73.48	0.00	0.0660	11.44	503.2	380.02	0.0835	724.4	13.039	24.07	15.51	1.52
	100.04	20.54	73.48	0.00	0.0659	11.42	502.4	379.44	0.0837	727.0	13.087	24.16	15.57	1.52
	101.04	20.54	73.51	0.00	0.0659	11.42	502.3	379.18	0.0836	725.8	13.065	24.11	15.54	1.52
	102.06	20.54	73.48	-0.00	0.0658	11.40	501.4	378.67	0.0839	726.8	13.083	24.15	15.57	1.52
	103.05	20.55	73.48	-0.00	0.0658	11.40	501.7	378.86	0.0842	733.7	13.206	24.38	15.71	1.52
	104.05	20.55	73.48	-0.00	0.0657	11.38	500.7	378.11	0.0840	731.0	13.158	24.29	15.66	1.52
	105.05	20.55	73.48	-0.00	0.0657	11.38	500.7	378.17	0.0841	731.1	13.160	24.30	15.66	1.52
	106.05	20.55	73.48	-0.00	0.0657	11.36	500.0	377.61	0.0845	735.6	13.242	24.45	15.75	1.52
	107.05	20.55	73.48	-0.00	0.0656	11.36	499.7	377.41	0.0844	737.4	13.273	24.50	15.79	1.52
	108.03	20.57	73.48	0.00	0.0655	11.33	498.7	376.66	0.0843	737.6	13.277	24.51	15.80	1.52
	109.06	20.57	73.48	-0.00	0.0654	11.31	497.8	375.95	0.0843	733.8	13.208	24.38	15.72	1.52
	110.04	20.57	73.48	-0.00	0.0654	11.29	496.6	375.08	0.0851	746.8	13.442	24.82	15.99	1.52
	111.04	20.57	73.48	0.00	0.0654	11.29	496.8	375.23	0.0846	735.7	13.243	24.45	15.76	1.52
	112.04	20.59	73.48	-0.00	0.0654	11.32	498.0	376.15	0.0850	742.8	13.371	24.69	15.91	1.52
	113.05	20.59	73.48	-0.00	0.0654	11.31	497.8	376.01	0.0852	745.9	13.427	24.79	15.97	1.52
	114.04	20.58	73.46	0.00	0.0653	11.29	496.6	375.24	0.0855	749.3	13.488	24.91	16.04	1.52
	115.03	20.59	73.48	0.00	0.0653	11.29	496.8	375.26	0.0854	749.2	13.485	24.90	16.04	1.52
	116.05	20.57	73.48	-0.00	0.0652	11.28	496.1	374.71	0.0860	752.5	13.545	25.01	16.11	1.52
	117.05	20.58	73.48	-0.00	0.0652	11.25	495.1	373.99	0.0861	758.8	13.658	25.22	16.24	1.52
	118.03	20.58	73.48	0.00	0.0651	11.24	494.4	373.40	0.0856	755.6	13.601	25.11	16.18	1.52
	119.04	20.59	73.48	-0.00	0.0651	11.23	494.3	373.32	0.0860	755.6	13.602	25.11	16.18	1.52
	120.04	20.59	73.48	-0.00	0.0651	11.23	493.9	373.05	0.0860	757.4	13.632	25.17	16.21	1.52
	121.03	20.60	73.46	0.00	0.0651	11.24	494.7	373.80	0.0857	753.0	13.554	25.03	16.12	1.52
	122.02	20.60	73.48	0.00	0.0651	11.24	494.5	373.56	0.0857	752.7	13.549	25.02	16.12	1.52
