Jul 22 2015 at 9:56:52
Frequency: 1.00Hz.
CO2
Zero:  Value:0.95  Date:18 Mar 2005	 at 07:22:33	
Span:  Value:1.00  Date:18 Mar 2005	 at 07:25:09	
H2O
Zero:  Value:0.71  Date:18 Mar 2005	 at 07:52:31	
Span:  Value:0.99  Date:18 Mar 2005	 at 11:44:01	
	Relative Time	Temperature	Pressure	Aux Input	CO2 Absorptance	CO2 mmol/m3	CO2 mg/m3	CO2 umol/mol	H2O Absorptance	H2O mmol/m3	H2O g/m3	H2O mmol/mol	H2O(°C)	Cooler Voltage
	1.01	25.94	73.54	-0.00	0.0680	11.89	523.0	401.96	0.0717	579.0	10.422	19.58	12.34	1.60
	2.00	25.93	73.48	0.00	0.0678	11.87	522.1	401.50	0.0718	580.9	10.455	19.66	12.39	1.60
	3.00	25.94	73.51	0.00	0.0675	11.80	519.1	399.05	0.0711	575.0	10.350	19.45	12.24	1.60
	3.99	25.96	73.48	0.00	0.0677	11.82	520.2	400.12	0.0725	588.3	10.590	19.91	12.59	1.60
	5.01	25.96	73.48	-0.00	0.0679	11.86	522.0	401.50	0.0722	583.7	10.507	19.75	12.47	1.60
	6.01	25.97	73.51	-0.00	0.0679	11.87	522.4	401.69	0.0713	575.4	10.357	19.47	12.25	1.60
	7.00	25.97	73.48	0.00	0.0678	11.87	522.4	401.77	0.0719	579.6	10.434	19.62	12.36	1.60
	7.99	25.97	73.51	0.00	0.0677	11.80	519.1	399.14	0.0720	574.6	10.343	19.44	12.23	1.60
	9.00	25.97	73.51	0.00	0.0680	11.88	522.9	402.03	0.0720	580.5	10.449	19.64	12.38	1.60
	10.00	26.00	73.48	0.00	0.0680	11.87	522.2	401.70	0.0721	581.3	10.464	19.68	12.41	1.60
	11.01	25.97	73.51	-0.00	0.0678	11.82	520.0	399.84	0.0722	580.2	10.444	19.63	12.38	1.60
	12.00	25.99	73.53	0.00	0.0675	11.76	517.5	397.78	0.0719	577.5	10.395	19.53	12.31	1.60
	13.01	25.97	73.51	-0.00	0.0677	11.83	520.4	400.11	0.0726	588.3	10.589	19.90	12.59	1.60
	13.99	25.97	73.48	0.00	0.0675	11.80	519.1	399.28	0.0722	585.8	10.544	19.82	12.52	1.60
	14.99	26.01	73.51	0.00	0.0678	11.84	520.8	400.48	0.0729	590.5	10.629	19.98	12.65	1.60
	15.99	25.97	73.48	0.00	0.0675	11.79	518.9	399.07	0.0731	593.9	10.691	20.10	12.73	1.60
	16.99	25.97	73.48	0.00	0.0673	11.72	515.9	396.78	0.0719	580.6	10.450	19.65	12.39	1.60
	18.00	25.97	73.48	-0.00	0.0675	11.76	517.6	398.12	0.0724	583.8	10.509	19.76	12.47	1.60
	19.00	25.97	73.48	-0.00	0.0676	11.80	519.2	399.31	0.0732	596.4	10.734	20.18	12.79	1.60
	19.98	25.97	73.48	0.00	0.0675	11.78	518.4	398.72	0.0729	593.5	10.683	20.09	12.72	1.60
	21.00	25.97	73.48	0.00	0.0674	11.74	516.7	397.39	0.0723	583.8	10.508	19.76	12.47	1.60
	21.98	25.97	73.48	0.00	0.0675	11.75	517.2	397.82	0.0726	586.9	10.565	19.86	12.55	1.60
	22.99	25.97	73.48	0.00	0.0673	11.74	516.5	397.30	0.0723	583.5	10.502	19.75	12.46	1.60
	23.99	25.98	73.51	-0.00	0.0675	11.77	517.9	398.21	0.0729	593.2	10.677	20.07	12.71	1.60
	25.01	25.94	73.48	-0.00	0.0673	11.73	516.2	396.97	0.0725	588.1	10.587	19.90	12.58	1.60
	25.99	25.97	73.48	0.00	0.0674	11.74	516.4	397.16	0.0730	589.0	10.603	19.93	12.61	1.60
	27.00	25.97	73.51	0.00	0.0674	11.76	517.3	397.77	0.0733	595.1	10.712	20.13	12.76	1.60
	28.00	25.97	73.48	0.00	0.0673	11.74	516.5	397.27	0.0732	595.1	10.712	20.14	12.76	1.60
	29.02	25.97	73.48	-0.00	0.0672	11.70	515.0	396.12	0.0730	591.4	10.644	20.01	12.67	1.60
	30.00	25.97	73.53	0.00	0.0673	11.73	516.0	396.58	0.0736	599.5	10.790	20.27	12.87	1.60
	31.01	25.97	73.51	-0.00	0.0672	11.71	515.4	396.28	0.0742	607.4	10.933	20.55	13.07	1.60
	32.00	25.99	73.48	0.00	0.0670	11.68	514.0	395.37	0.0740	607.5	10.935	20.56	13.08	1.60
	33.01	26.01	73.48	0.00	0.0671	11.68	513.8	395.23	0.0744	609.5	10.970	20.63	13.13	1.60
	34.01	25.99	73.51	-0.00	0.0670	11.68	513.7	395.03	0.0745	609.2	10.965	20.61	13.12	1.60
	35.01	25.99	73.48	-0.00	0.0668	11.63	511.5	393.48	0.0737	601.4	10.825	20.35	12.92	1.60
	36.01	25.99	73.48	-0.00	0.0669	11.64	512.3	394.05	0.0742	602.5	10.845	20.39	12.95	1.60
	37.00	26.01	73.51	0.00	0.0669	11.65	512.5	394.09	0.0754	622.7	11.209	21.07	13.46	1.60
	37.99	26.03	73.48	0.00	0.0669	11.63	511.9	393.82	0.0756	621.6	11.188	21.04	13.43	1.60
	39.02	26.01	73.48	-0.00	0.0669	11.65	512.8	394.45	0.0755	622.7	11.208	21.08	13.46	1.60
	40.00	26.01	73.51	-0.00	0.0670	11.65	512.7	394.22	0.0754	621.1	11.179	21.01	13.42	1.60
	41.01	26.03	73.48	-0.00	0.0666	11.57	509.0	391.54	0.0746	610.9	10.996	20.68	13.17	1.60
	41.99	26.01	73.46	0.00	0.0670	11.65	512.6	394.48	0.0753	621.5	11.186	21.04	13.43	1.60
	43.01	26.01	73.51	-0.00	0.0669	11.65	512.7	394.22	0.0748	614.5	11.060	20.79	13.25	1.60
	44.07	26.01	73.48	-0.00	0.0669	11.65	512.4	394.20	0.0751	621.8	11.193	21.05	13.44	1.60
	44.99	26.01	73.48	0.00	0.0667	11.61	510.7	392.88	0.0745	610.6	10.992	20.67	13.16	1.60
	45.99	26.01	73.48	0.00	0.0668	11.63	511.5	393.50	0.0756	626.1	11.270	21.19	13.54	1.60
	47.00	26.03	73.51	-0.00	0.0668	11.60	510.4	392.54	0.0753	621.2	11.182	21.02	13.42	1.60
	48.00	26.03	73.48	-0.00	0.0669	11.62	511.3	393.38	0.0756	627.0	11.286	21.22	13.57	1.60
	49.00	26.01	73.51	0.00	0.0668	11.62	511.2	393.11	0.0757	627.2	11.290	21.22	13.57	1.60
	49.98	26.03	73.48	0.00	0.0666	11.59	509.9	392.25	0.0757	630.1	11.341	21.33	13.64	1.60
	51.01	26.01	73.48	-0.00	0.0668	11.61	511.0	393.09	0.0763	630.6	11.351	21.35	13.65	1.60
	51.98	26.03	73.51	0.00	0.0667	11.59	509.8	392.08	0.0755	623.1	11.215	21.08	13.47	1.60
	53.01	26.02	73.48	-0.00	0.0667	11.60	510.5	392.71	0.0766	633.9	11.411	21.46	13.73	1.60
	53.99	26.03	73.51	-0.00	0.0666	11.57	509.0	391.43	0.0758	628.1	11.305	21.25	13.59	1.60
	54.99	26.04	73.51	0.00	0.0664	11.54	507.6	390.40	0.0753	621.0	11.178	21.01	13.42	1.60
	56.00	26.05	73.48	-0.00	0.0664	11.55	508.1	390.93	0.0758	627.0	11.286	21.22	13.57	1.60
	57.00	26.05	73.51	0.00	0.0665	11.57	508.9	391.40	0.0755	622.5	11.205	21.07	13.46	1.60
	58.00	26.04	73.51	0.00	0.0665	11.56	508.7	391.19	0.0773	641.2	11.541	21.70	13.91	1.60
	59.00	26.05	73.48	0.00	0.0666	11.56	508.7	391.34	0.0770	641.7	11.551	21.72	13.92	1.60
	60.00	26.07	73.48	0.00	0.0665	11.55	508.2	391.01	0.0762	631.6	11.369	21.38	13.68	1.60
	61.01	26.08	73.51	-0.00	0.0663	11.51	506.5	389.56	0.0765	635.0	11.430	21.49	13.76	1.60
	62.01	26.06	73.48	-0.00	0.0663	11.50	506.0	389.27	0.0778	648.9	11.681	21.97	14.10	1.60
	63.01	26.08	73.51	-0.00	0.0663	11.50	506.1	389.29	0.0776	647.6	11.656	21.92	14.06	1.60
	63.99	26.07	73.51	0.00	0.0662	11.50	506.1	389.26	0.0778	651.4	11.726	22.04	14.16	1.60
	65.08	26.07	73.48	-0.00	0.0662	11.49	505.4	388.85	0.0776	650.3	11.705	22.01	14.13	1.60
	66.00	26.07	73.48	-0.00	0.0661	11.48	505.1	388.61	0.0780	654.5	11.780	22.16	14.23	1.60
	67.02	26.08	73.51	-0.00	0.0662	11.49	505.4	388.71	0.0783	658.9	11.859	22.30	14.33	1.60
	68.00	26.08	73.46	0.00	0.0661	11.46	504.4	388.26	0.0785	662.0	11.916	22.42	14.40	1.60
	69.00	26.11	73.51	0.00	0.0661	11.45	503.9	387.63	0.0778	649.7	11.695	21.99	14.12	1.60
	70.00	26.12	73.51	0.00	0.0662	11.49	505.4	388.81	0.0779	650.5	11.710	22.02	14.14	1.60
	71.01	26.10	73.46	0.00	0.0662	11.48	505.1	388.81	0.0788	664.1	11.954	22.49	14.45	1.60
	71.99	26.10	73.48	0.00	0.0661	11.47	504.8	388.41	0.0784	657.0	11.827	22.25	14.29	1.60
	72.99	26.10	73.48	0.00	0.0662	11.47	504.8	388.41	0.0778	653.0	11.755	22.11	14.20	1.60
	73.99	26.10	73.51	0.00	0.0661	11.47	504.6	388.13	0.0787	659.0	11.863	22.31	14.34	1.60
	75.00	26.15	73.51	-0.00	0.0660	11.44	503.5	387.35	0.0784	656.8	11.822	22.23	14.29	1.60
	75.99	26.10	73.48	0.00	0.0661	11.46	504.1	387.87	0.0789	664.4	11.959	22.50	14.46	1.60
	77.00	26.10	73.48	-0.00	0.0661	11.46	504.3	388.05	0.0790	665.2	11.973	22.52	14.48	1.60
	78.00	26.10	73.51	-0.00	0.0660	11.44	503.5	387.25	0.0787	663.8	11.949	22.47	14.45	1.60
	79.08	26.07	73.48	-0.00	0.0661	11.46	504.1	387.85	0.0788	664.5	11.961	22.50	14.46	1.60
	80.00	26.10	73.51	0.00	0.0659	11.43	503.1	386.99	0.0789	665.7	11.983	22.53	14.49	1.60
	81.01	26.08	73.48	0.00	0.0659	11.41	502.2	386.43	0.0798	674.4	12.139	22.83	14.69	1.60
	82.01	26.08	73.51	-0.00	0.0659	11.42	502.3	386.38	0.0795	675.5	12.160	22.86	14.72	1.60
	83.01	26.12	73.48	0.00	0.0658	11.39	501.3	385.74	0.0799	679.6	12.233	23.01	14.81	1.60
	84.01	26.12	73.48	0.00	0.0656	11.36	499.9	384.72	0.0804	684.9	12.329	23.19	14.93	1.60
	85.02	26.10	73.51	-0.00	0.0657	11.37	500.2	384.77	0.0806	687.4	12.374	23.27	14.99	1.60
	86.00	26.10	73.48	0.00	0.0657	11.38	500.8	385.32	0.0801	681.1	12.259	23.06	14.85	1.60
	87.02	26.12	73.48	-0.00	0.0656	11.35	499.3	384.19	0.0808	685.1	12.331	23.20	14.94	1.60
	88.00	26.12	73.48	0.00	0.0656	11.34	498.9	383.90	0.0815	694.7	12.505	23.52	15.16	1.60
	89.00	26.12	73.48	0.00	0.0656	11.34	498.9	383.92	0.0811	698.8	12.579	23.66	15.25	1.60
	90.01	26.12	73.51	-0.00	0.0656	11.36	500.0	384.62	0.0808	689.5	12.411	23.34	15.04	1.60
	91.01	26.12	73.51	0.00	0.0655	11.35	499.2	384.03	0.0814	693.6	12.484	23.47	15.13	1.60
	91.99	26.16	73.51	0.00	0.0655	11.33	498.4	383.45	0.0813	698.1	12.566	23.63	15.23	1.60
	93.01	26.10	73.48	-0.00	0.0655	11.32	498.0	383.16	0.0819	702.5	12.645	23.78	15.33	1.60
	93.99	26.13	73.48	0.00	0.0655	11.34	499.0	384.00	0.0817	698.6	12.574	23.65	15.24	1.60
	95.08	26.16	73.48	-0.00	0.0656	11.35	499.2	384.21	0.0806	689.0	12.402	23.33	15.03	1.60
	95.99	26.14	73.54	0.00	0.0656	11.35	499.4	384.06	0.0813	695.9	12.526	23.55	15.18	1.60
	97.00	26.15	73.48	0.00	0.0655	11.32	498.1	383.34	0.0817	698.8	12.578	23.66	15.25	1.60
	98.00	26.16	73.48	-0.00	0.0653	11.30	497.3	382.78	0.0822	707.5	12.734	23.96	15.44	1.60
	99.01	26.16	73.51	-0.00	0.0652	11.26	495.6	381.29	0.0813	696.2	12.532	23.57	15.19	1.60
	100.00	26.15	73.48	0.00	0.0654	11.29	496.9	382.45	0.0825	711.1	12.799	24.08	15.52	1.60
	101.01	26.15	73.48	-0.00	0.0653	11.29	496.8	382.32	0.0822	708.1	12.746	23.98	15.45	1.60
	102.07	26.15	73.48	-0.00	0.0653	11.29	496.8	382.37	0.0827	707.3	12.732	23.95	15.44	1.60
	103.01	26.17	73.48	-0.00	0.0652	11.25	495.1	381.09	0.0830	718.8	12.938	24.34	15.69	1.60
	103.99	26.16	73.53	0.00	0.0651	11.25	494.8	380.59	0.0833	721.2	12.982	24.41	15.74	1.60
	104.97	26.18	73.51	0.00	0.0651	11.23	494.2	380.25	0.0837	726.6	13.079	24.60	15.86	1.60
	105.99	26.16	73.46	0.00	0.0651	11.23	494.2	380.45	0.0837	724.8	13.047	24.55	15.82	1.60
	107.00	26.19	73.51	0.00	0.0649	11.20	492.8	379.16	0.0845	739.1	13.304	25.02	16.13	1.60
	107.98	26.20	73.46	0.00	0.0650	11.20	492.9	379.50	0.0846	739.2	13.305	25.04	16.13	1.60
	109.00	26.17	73.48	0.00	0.0648	11.19	492.3	378.91	0.0846	738.9	13.300	25.02	16.12	1.60
	109.98	26.20	73.48	0.00	0.0648	11.20	492.8	379.33	0.0846	735.5	13.240	24.91	16.05	1.60
	111.01	26.18	73.48	0.00	0.0648	11.16	490.8	377.80	0.0846	736.3	13.253	24.94	16.07	1.60
	112.01	26.19	73.48	-0.00	0.0648	11.17	491.4	378.26	0.0841	734.2	13.215	24.87	16.02	1.60
	113.02	26.19	73.48	-0.00	0.0649	11.19	492.6	379.13	0.0842	731.0	13.157	24.76	15.95	1.60
	114.07	26.19	73.51	0.00	0.0649	11.20	493.0	379.32	0.0842	734.2	13.215	24.86	16.02	1.60
	115.02	26.19	73.51	-0.00	0.0649	11.19	492.3	378.83	0.0837	730.9	13.156	24.75	15.95	1.60
	116.00	26.19	73.48	-0.00	0.0649	11.21	493.1	379.52	0.0847	741.0	13.337	25.09	16.17	1.60
	117.02	26.19	73.51	-0.00	0.0650	11.21	493.0	379.35	0.0840	728.9	13.120	24.68	15.91	1.60
	118.00	26.21	73.51	0.00	0.0649	11.20	492.8	379.20	0.0847	739.9	13.319	25.05	16.14	1.60
	119.00	26.19	73.51	0.00	0.0647	11.16	491.0	377.83	0.0847	739.0	13.301	25.02	16.12	1.60
	120.00	26.21	73.48	0.00	0.0648	11.16	490.8	377.84	0.0850	748.6	13.475	25.36	16.33	1.60
	121.07	26.21	73.51	0.00	0.0647	11.15	490.7	377.55	0.0853	747.3	13.452	25.30	16.30	1.60
	121.99	26.23	73.48	0.00	0.0647	11.15	490.6	377.70	0.0856	751.4	13.525	25.45	16.39	1.60
