Jul 22 2015 at 11:25:29
Frequency: 1.00Hz.
CO2
Zero:  Value:0.95  Date:18 Mar 2005	 at 07:22:33	
Span:  Value:1.00  Date:18 Mar 2005	 at 07:25:09	
H2O
Zero:  Value:0.71  Date:18 Mar 2005	 at 07:52:31	
Span:  Value:0.99  Date:18 Mar 2005	 at 11:44:01	
	Relative Time	Temperature	Pressure	Aux Input	CO2 Absorptance	CO2 mmol/m3	CO2 mg/m3	CO2 umol/mol	H2O Absorptance	H2O mmol/m3	H2O g/m3	H2O mmol/mol	H2O(°C)	Cooler Voltage
	0.87	31.37	73.54	0.00	0.0669	11.62	511.2	400.01	0.0624	472.6	8.507	16.27	9.56	1.68
	1.87	31.39	73.51	-0.00	0.0669	11.63	511.6	400.47	0.0626	473.1	8.516	16.30	9.57	1.68
	2.87	31.33	73.54	-0.00	0.0667	11.60	510.6	399.46	0.0634	483.4	8.702	16.64	9.89	1.67
	3.87	31.37	73.54	0.00	0.0666	11.60	510.3	399.31	0.0639	488.5	8.793	16.82	10.05	1.67
	4.88	31.31	73.51	-0.00	0.0665	11.54	507.8	397.43	0.0638	486.7	8.761	16.76	9.99	1.67
	5.88	31.37	73.54	-0.00	0.0665	11.53	507.5	397.08	0.0652	494.8	8.906	17.03	10.24	1.68
	6.86	31.35	73.54	0.00	0.0664	11.53	507.3	396.92	0.0651	497.8	8.960	17.14	10.33	1.68
	7.88	31.35	73.51	0.00	0.0663	11.50	506.0	396.10	0.0644	496.5	8.937	17.10	10.29	1.67
	8.86	31.33	73.51	0.00	0.0662	11.48	505.2	395.41	0.0642	493.7	8.887	17.00	10.21	1.68
	9.86	31.33	73.54	0.00	0.0664	11.51	506.7	396.40	0.0643	491.9	8.854	16.93	10.15	1.67
	10.87	31.35	73.54	0.00	0.0662	11.50	505.9	395.83	0.0643	493.4	8.882	16.99	10.20	1.68
	11.89	31.37	73.54	-0.00	0.0662	11.49	505.7	395.69	0.0644	494.9	8.908	17.04	10.25	1.68
	12.87	31.35	73.54	0.00	0.0662	11.49	505.4	395.40	0.0643	493.4	8.882	16.99	10.20	1.67
	13.87	31.35	73.51	0.00	0.0663	11.51	506.5	396.43	0.0648	496.7	8.941	17.11	10.30	1.67
	14.88	31.34	73.51	0.00	0.0665	11.54	507.8	397.48	0.0650	501.7	9.031	17.28	10.45	1.67
	15.87	31.37	73.51	0.00	0.0664	11.52	506.8	396.72	0.0648	498.4	8.972	17.17	10.35	1.67
	16.88	31.37	73.54	0.00	0.0664	11.53	507.1	396.84	0.0648	498.2	8.967	17.15	10.35	1.68
	17.86	31.37	73.51	0.00	0.0664	11.52	506.7	396.65	0.0650	499.6	8.992	17.21	10.39	1.68
	18.95	31.39	73.51	-0.00	0.0665	11.54	507.7	397.47	0.0654	504.6	9.083	17.38	10.54	1.67
	19.86	31.37	73.54	0.00	0.0664	11.54	507.7	397.29	0.0654	505.1	9.092	17.39	10.55	1.67
	20.87	31.36	73.51	0.00	0.0664	11.54	507.7	397.39	0.0658	507.4	9.134	17.48	10.62	1.67
	21.87	31.38	73.56	0.00	0.0665	11.54	507.6	397.08	0.0665	515.6	9.281	17.75	10.86	1.67
	22.87	31.41	73.51	0.00	0.0664	11.53	507.4	397.25	0.0667	517.8	9.320	17.84	10.93	1.68
	23.87	31.43	73.51	-0.00	0.0664	11.53	507.3	397.21	0.0670	522.2	9.399	17.99	11.06	1.67
	24.85	31.43	73.51	0.00	0.0662	11.49	505.7	395.89	0.0664	519.9	9.358	17.91	10.99	1.68
	25.94	31.41	73.54	-0.00	0.0662	11.48	505.3	395.45	0.0662	514.8	9.267	17.73	10.84	1.67
	26.85	31.43	73.54	0.00	0.0663	11.50	505.9	395.92	0.0672	523.5	9.423	18.03	11.09	1.68
	27.89	31.46	73.54	-0.00	0.0663	11.51	506.2	396.25	0.0677	530.4	9.546	18.27	11.29	1.67
	28.86	31.45	73.51	0.00	0.0663	11.49	505.8	396.00	0.0672	526.5	9.476	18.14	11.18	1.68
	29.87	31.45	73.54	0.00	0.0662	11.49	505.4	395.62	0.0672	523.3	9.419	18.02	11.09	1.68
	30.87	31.45	73.54	0.00	0.0663	11.51	506.3	396.29	0.0678	533.8	9.609	18.38	11.39	1.68
	31.89	31.43	73.54	0.00	0.0663	11.51	506.6	396.51	0.0686	539.6	9.712	18.58	11.55	1.67
	32.87	31.45	73.51	0.00	0.0663	11.51	506.2	396.36	0.0679	534.2	9.616	18.40	11.40	1.68
	33.87	31.45	73.51	0.00	0.0662	11.48	505.0	395.40	0.0673	526.8	9.483	18.15	11.19	1.68
	34.87	31.45	73.51	0.00	0.0661	11.48	505.3	395.63	0.0673	529.4	9.529	18.24	11.26	1.68
	35.87	31.43	73.48	0.00	0.0661	11.46	504.2	394.90	0.0675	526.4	9.475	18.14	11.18	1.67
	36.88	31.45	73.51	-0.00	0.0661	11.47	504.6	395.12	0.0677	532.0	9.576	18.33	11.34	1.67
	37.88	31.45	73.54	-0.00	0.0660	11.45	503.6	394.18	0.0672	524.3	9.438	18.06	11.12	1.68
	38.86	31.43	73.56	0.00	0.0661	11.45	504.0	394.28	0.0679	527.1	9.488	18.15	11.20	1.68
	39.86	31.42	73.56	0.00	0.0661	11.47	504.8	394.91	0.0685	542.5	9.764	18.67	11.63	1.68
	40.87	31.45	73.54	0.00	0.0662	11.48	505.0	395.26	0.0688	542.9	9.772	18.70	11.64	1.68
	41.87	31.45	73.51	-0.00	0.0662	11.48	505.1	395.49	0.0693	550.1	9.902	18.95	11.84	1.67
	42.87	31.45	73.51	0.00	0.0661	11.47	504.6	395.13	0.0689	544.8	9.806	18.77	11.70	1.68
	43.87	31.45	73.56	0.00	0.0661	11.46	504.4	394.62	0.0688	545.4	9.818	18.78	11.71	1.68
	44.94	31.45	73.54	0.00	0.0661	11.46	504.1	394.57	0.0690	543.6	9.785	18.72	11.66	1.68
	45.86	31.47	73.54	0.00	0.0661	11.46	504.4	394.82	0.0697	553.2	9.957	19.05	11.93	1.68
	46.88	31.47	73.51	-0.00	0.0660	11.44	503.4	394.19	0.0691	545.5	9.818	18.79	11.72	1.68
	47.86	31.45	73.51	0.00	0.0661	11.46	504.3	394.87	0.0698	553.6	9.966	19.07	11.94	1.68
	48.86	31.45	73.51	0.00	0.0659	11.41	502.1	393.09	0.0683	536.6	9.658	18.48	11.47	1.68
	49.86	31.49	73.51	0.00	0.0660	11.43	502.7	393.67	0.0689	541.7	9.751	18.67	11.61	1.68
	50.86	31.49	73.54	0.00	0.0659	11.41	502.2	393.10	0.0685	541.9	9.754	18.66	11.62	1.68
	51.87	31.47	73.51	-0.00	0.0659	11.42	502.3	393.32	0.0675	529.5	9.531	18.24	11.27	1.68
	52.85	31.47	73.51	0.00	0.0658	11.42	502.4	393.40	0.0685	536.5	9.657	18.48	11.47	1.68
	53.88	31.47	73.51	0.00	0.0658	11.40	501.5	392.70	0.0685	539.4	9.710	18.58	11.55	1.68
	54.88	31.51	73.54	-0.00	0.0659	11.42	502.6	393.47	0.0688	542.4	9.763	18.68	11.63	1.68
	55.86	31.48	73.51	0.00	0.0659	11.43	502.8	393.74	0.0687	542.3	9.761	18.68	11.63	1.68
	56.88	31.52	73.54	-0.00	0.0658	11.42	502.3	393.23	0.0688	541.8	9.753	18.66	11.62	1.68
	57.88	31.49	73.56	-0.00	0.0659	11.42	502.4	393.18	0.0694	550.7	9.913	18.96	11.86	1.68
	58.88	31.47	73.51	0.00	0.0659	11.43	502.7	393.62	0.0698	553.9	9.970	19.08	11.95	1.68
	59.86	31.49	73.54	0.00	0.0659	11.42	502.3	393.21	0.0697	556.4	10.016	19.17	12.02	1.68
	60.86	31.51	73.53	-0.00	0.0659	11.42	502.4	393.33	0.0697	555.6	10.000	19.14	12.00	1.68
	61.87	31.51	73.54	0.00	0.0658	11.40	501.7	392.78	0.0700	554.4	9.979	19.10	11.96	1.68
	62.88	31.48	73.51	-0.00	0.0658	11.40	501.7	392.82	0.0700	558.9	10.060	19.26	12.08	1.68
	63.87	31.54	73.51	0.00	0.0659	11.42	502.4	393.48	0.0710	570.4	10.268	19.66	12.40	1.68
	64.88	31.51	73.51	-0.00	0.0659	11.41	502.0	393.16	0.0715	574.1	10.334	19.78	12.49	1.68
	65.88	31.56	73.56	-0.00	0.0659	11.43	502.7	393.46	0.0713	574.8	10.346	19.79	12.52	1.68
	66.88	31.54	73.51	-0.00	0.0658	11.39	501.3	392.58	0.0708	567.9	10.222	19.57	12.33	1.68
	67.88	31.56	73.51	0.00	0.0658	11.38	500.9	392.33	0.0705	562.6	10.126	19.39	12.19	1.68
	68.87	31.54	73.54	-0.00	0.0659	11.41	501.9	392.92	0.0713	570.0	10.261	19.64	12.39	1.68
	69.95	31.54	73.51	-0.00	0.0658	11.40	501.4	392.70	0.0715	574.4	10.338	19.79	12.50	1.68
	70.87	31.51	73.56	-0.00	0.0658	11.40	501.4	392.39	0.0714	571.3	10.283	19.67	12.42	1.68
	71.89	31.50	73.51	-0.00	0.0658	11.39	501.1	392.43	0.0713	571.1	10.280	19.68	12.41	1.68
	72.85	31.51	73.54	0.00	0.0657	11.39	501.0	392.19	0.0711	570.1	10.261	19.64	12.39	1.68
	73.87	31.51	73.51	0.00	0.0658	11.38	500.8	392.22	0.0715	570.5	10.268	19.66	12.40	1.68
	74.86	31.54	73.54	-0.00	0.0656	11.35	499.5	391.07	0.0703	562.2	10.120	19.37	12.18	1.68
	75.88	31.51	73.51	-0.00	0.0657	11.37	500.2	391.75	0.0709	567.5	10.214	19.55	12.32	1.68
	76.86	31.56	73.49	0.00	0.0658	11.39	501.0	392.53	0.0721	579.7	10.435	19.99	12.65	1.68
	77.86	31.54	73.54	0.00	0.0657	11.37	500.2	391.60	0.0713	573.5	10.322	19.75	12.48	1.68
	78.89	31.54	73.51	0.00	0.0657	11.38	500.6	392.03	0.0714	572.8	10.311	19.74	12.46	1.68
	79.86	31.53	73.54	0.00	0.0657	11.37	500.3	391.65	0.0715	573.3	10.319	19.75	12.47	1.68
	80.87	31.54	73.51	0.00	0.0656	11.36	499.8	391.46	0.0710	569.7	10.254	19.63	12.38	1.68
	81.87	31.51	73.54	0.00	0.0657	11.36	500.0	391.38	0.0711	569.6	10.254	19.62	12.38	1.68
	82.87	31.53	73.54	0.00	0.0657	11.38	500.7	391.96	0.0717	576.1	10.370	19.85	12.55	1.68
	83.96	31.51	73.54	-0.00	0.0657	11.36	500.0	391.46	0.0721	582.5	10.486	20.07	12.72	1.68
	84.88	31.53	73.51	-0.00	0.0657	11.38	500.7	392.09	0.0725	586.5	10.557	20.21	12.82	1.68
	85.86	31.53	73.51	0.00	0.0656	11.36	499.9	391.48	0.0718	579.5	10.432	19.97	12.64	1.68
	86.86	31.55	73.48	0.00	0.0657	11.37	500.5	392.12	0.0721	582.4	10.482	20.08	12.71	1.68
	87.86	31.53	73.54	0.00	0.0657	11.37	500.3	391.67	0.0725	584.9	10.528	20.15	12.78	1.68
	88.87	31.58	73.51	-0.00	0.0657	11.37	500.4	391.96	0.0725	585.3	10.536	20.17	12.79	1.68
	89.86	31.54	73.54	0.00	0.0656	11.36	500.0	391.50	0.0717	583.1	10.496	20.09	12.73	1.68
	90.86	31.57	73.51	0.00	0.0657	11.36	499.7	391.39	0.0720	578.9	10.421	19.95	12.63	1.68
	91.87	31.55	73.54	0.00	0.0657	11.37	500.4	391.80	0.0728	588.3	10.589	20.27	12.87	1.68
	92.88	31.56	73.51	-0.00	0.0657	11.38	500.7	392.17	0.0730	593.5	10.683	20.45	13.00	1.68
	93.87	31.60	73.51	0.00	0.0657	11.38	500.5	392.09	0.0732	594.9	10.708	20.50	13.04	1.68
	94.86	31.60	73.51	0.00	0.0656	11.35	499.5	391.31	0.0727	587.9	10.582	20.26	12.86	1.68
	95.94	31.60	73.51	0.00	0.0657	11.36	500.0	391.65	0.0728	589.3	10.607	20.31	12.90	1.68
	96.86	31.60	73.51	0.00	0.0656	11.35	499.4	391.24	0.0729	590.8	10.635	20.36	12.94	1.68
	97.86	31.57	73.48	-0.00	0.0656	11.35	499.2	391.17	0.0728	591.0	10.638	20.37	12.94	1.68
	98.87	31.60	73.48	0.00	0.0655	11.34	499.1	391.10	0.0728	590.3	10.626	20.35	12.92	1.68
	99.87	31.57	73.54	0.00	0.0655	11.33	498.5	390.35	0.0726	588.0	10.585	20.26	12.86	1.68
	100.86	31.56	73.51	0.00	0.0657	11.37	500.1	391.70	0.0737	599.8	10.797	20.67	13.17	1.68
	101.88	31.60	73.51	-0.00	0.0656	11.35	499.4	391.18	0.0733	596.6	10.739	20.56	13.09	1.68
	102.93	31.59	73.54	0.00	0.0655	11.32	498.2	390.13	0.0727	589.6	10.613	20.32	12.91	1.68
	103.88	31.56	73.51	-0.00	0.0656	11.35	499.3	391.10	0.0732	593.9	10.691	20.47	13.02	1.68
	104.86	31.62	73.51	0.00	0.0655	11.34	498.9	390.84	0.0730	595.7	10.722	20.53	13.06	1.68
	105.88	31.59	73.54	-0.00	0.0655	11.33	498.7	390.52	0.0738	600.8	10.815	20.70	13.19	1.68
	106.88	31.56	73.48	0.00	0.0654	11.32	498.0	390.18	0.0735	601.8	10.832	20.75	13.22	1.68
	107.86	31.59	73.51	0.00	0.0655	11.32	498.2	390.25	0.0735	598.0	10.764	20.61	13.12	1.68
	108.89	31.59	73.51	-0.00	0.0655	11.32	498.1	390.16	0.0729	592.2	10.659	20.41	12.97	1.68
	109.87	31.61	73.54	0.00	0.0655	11.32	498.0	389.96	0.0730	592.1	10.657	20.40	12.97	1.69
	110.87	31.61	73.54	-0.00	0.0655	11.33	498.7	390.52	0.0737	603.2	10.857	20.78	13.25	1.68
	111.87	31.59	73.51	0.00	0.0655	11.32	498.0	390.11	0.0736	600.2	10.804	20.69	13.18	1.68
	112.85	31.58	73.51	0.00	0.0655	11.33	498.5	390.47	0.0737	600.8	10.815	20.71	13.19	1.68
	113.86	31.60	73.51	0.00	0.0655	11.33	498.5	390.48	0.0741	605.1	10.891	20.85	13.30	1.68
	114.86	31.62	73.54	0.00	0.0655	11.31	497.7	389.73	0.0738	600.5	10.809	20.69	13.19	1.69
	115.86	31.62	73.51	0.00	0.0655	11.32	498.1	390.19	0.0739	602.9	10.852	20.78	13.25	1.69
	116.94	31.61	73.54	0.00	0.0654	11.31	497.8	389.86	0.0736	601.5	10.827	20.73	13.21	1.68
	117.87	31.59	73.51	0.00	0.0653	11.29	496.8	389.19	0.0733	597.2	10.749	20.58	13.10	1.68
	118.87	31.62	73.49	0.00	0.0654	11.31	497.5	389.84	0.0736	598.1	10.766	20.62	13.13	1.68
	119.87	31.62	73.54	-0.00	0.0654	11.31	497.8	389.84	0.0741	605.2	10.894	20.85	13.31	1.68
	120.95	31.60	73.51	-0.00	0.0655	11.31	497.7	389.90	0.0746	608.5	10.953	20.97	13.39	1.69
	121.88	31.62	73.51	-0.00	0.0653	11.30	497.2	389.52	0.0738	604.1	10.874	20.82	13.28	1.69
	122.88	31.64	73.51	-0.00	0.0654	11.29	496.9	389.27	0.0738	600.2	10.804	20.69	13.18	1.68
