Jul 22 2015 at 10:52:02
Frequency: 1.00Hz.
CO2
Zero:  Value:0.95  Date:18 Mar 2005	 at 07:22:33	
Span:  Value:1.00  Date:18 Mar 2005	 at 07:25:09	
H2O
Zero:  Value:0.71  Date:18 Mar 2005	 at 07:52:31	
Span:  Value:0.99  Date:18 Mar 2005	 at 11:44:01	
	Relative Time	Temperature	Pressure	Aux Input	CO2 Absorptance	CO2 mmol/m3	CO2 mg/m3	CO2 umol/mol	H2O Absorptance	H2O mmol/m3	H2O g/m3	H2O mmol/mol	H2O(°C)	Cooler Voltage
	0.19	31.12	73.51	0.00	0.0676	11.79	518.8	405.77	0.0681	542.2	9.759	18.66	11.61	1.68
	1.17	31.14	73.51	0.00	0.0675	11.83	520.5	407.16	0.0687	534.1	9.614	18.38	11.38	1.68
	2.18	31.12	73.51	0.00	0.0676	11.79	518.9	405.87	0.0683	538.5	9.694	18.53	11.50	1.67
	3.18	31.09	73.51	0.00	0.0673	11.75	517.1	404.39	0.0691	546.9	9.843	18.82	11.74	1.68
	4.18	31.12	73.51	0.00	0.0675	11.72	515.8	403.38	0.0689	548.5	9.873	18.88	11.78	1.68
	5.24	31.10	73.51	0.00	0.0673	11.73	516.0	403.50	0.0694	549.5	9.890	18.91	11.81	1.68
	6.18	31.10	73.51	0.00	0.0674	11.74	516.6	403.98	0.0701	555.6	10.001	19.12	11.98	1.68
	7.18	31.08	73.51	-0.00	0.0674	11.75	516.8	404.17	0.0700	558.0	10.043	19.20	12.04	1.68
	8.19	31.05	73.48	-0.00	0.0674	11.75	517.1	404.45	0.0697	550.6	9.911	18.95	11.84	1.68
	9.25	31.12	73.54	0.00	0.0673	11.72	515.8	403.30	0.0701	558.5	10.053	19.21	12.06	1.68
	10.19	31.06	73.46	-0.00	0.0672	11.72	515.6	403.47	0.0706	566.2	10.191	19.49	12.26	1.68
	11.19	31.07	73.51	-0.00	0.0674	11.73	516.3	403.76	0.0699	557.0	10.026	19.17	12.01	1.68
	12.26	31.12	73.51	0.00	0.0673	11.71	515.4	403.13	0.0705	562.0	10.116	19.34	12.15	1.68
	13.18	31.09	73.51	0.00	0.0673	11.74	516.4	403.82	0.0703	562.0	10.116	19.34	12.15	1.68
	14.18	31.12	73.51	-0.00	0.0672	11.70	514.8	402.65	0.0710	567.0	10.205	19.51	12.28	1.67
	15.18	31.09	73.51	0.00	0.0672	11.72	515.7	403.27	0.0706	562.4	10.122	19.35	12.16	1.68
	16.18	31.12	73.46	0.00	0.0670	11.67	513.5	401.89	0.0720	576.7	10.380	19.86	12.54	1.67
	17.16	31.12	73.51	0.00	0.0670	11.67	513.6	401.71	0.0725	587.8	10.580	20.23	12.83	1.68
	18.17	31.16	73.53	0.00	0.0670	11.67	513.4	401.50	0.0735	595.5	10.720	20.49	13.04	1.68
	19.17	31.09	73.51	-0.00	0.0671	11.68	513.8	401.84	0.0728	584.8	10.527	20.12	12.76	1.67
	20.19	31.05	73.51	0.00	0.0670	11.66	513.1	401.19	0.0732	595.4	10.717	20.48	13.03	1.67
	21.18	31.14	73.48	0.00	0.0670	11.65	512.6	401.04	0.0733	593.7	10.686	20.44	12.99	1.68
	22.17	31.13	73.48	0.00	0.0670	11.67	513.5	401.73	0.0737	596.8	10.743	20.55	13.07	1.68
	23.18	31.15	73.48	0.00	0.0670	11.65	512.7	401.19	0.0741	608.6	10.954	20.95	13.37	1.68
	24.16	31.13	73.51	0.00	0.0671	11.68	513.9	401.91	0.0733	599.6	10.793	20.64	13.14	1.67
	25.19	31.13	73.48	-0.00	0.0671	11.68	514.0	402.14	0.0734	597.7	10.758	20.58	13.09	1.67
	26.18	31.13	73.51	0.00	0.0669	11.65	512.5	400.87	0.0748	609.5	10.972	20.98	13.39	1.67
	27.18	31.13	73.48	0.00	0.0669	11.64	512.2	400.78	0.0745	612.1	11.018	21.07	13.46	1.68
	28.17	31.15	73.51	0.00	0.0669	11.62	511.4	400.06	0.0749	618.6	11.134	21.29	13.62	1.68
	29.19	31.15	73.51	-0.00	0.0669	11.64	512.1	400.61	0.0750	615.5	11.079	21.18	13.54	1.67
	30.19	31.13	73.51	0.00	0.0669	11.66	513.0	401.21	0.0747	612.0	11.016	21.06	13.45	1.68
	31.18	31.15	73.48	0.00	0.0668	11.62	511.1	399.94	0.0754	628.2	11.308	21.63	13.86	1.67
	32.20	31.15	73.51	-0.00	0.0668	11.62	511.3	399.94	0.0750	617.0	11.106	21.24	13.58	1.68
	33.18	31.15	73.54	-0.00	0.0667	11.60	510.6	399.23	0.0758	627.4	11.293	21.59	13.84	1.67
	34.18	31.15	73.51	0.00	0.0666	11.58	509.7	398.68	0.0767	632.8	11.389	21.78	13.97	1.68
	35.18	31.17	73.51	-0.00	0.0667	11.58	509.4	398.48	0.0760	634.6	11.424	21.84	14.01	1.68
	36.18	31.15	73.48	0.00	0.0667	11.57	508.9	398.21	0.0763	637.6	11.477	21.95	14.09	1.67
	37.17	31.19	73.51	-0.00	0.0666	11.58	509.7	398.76	0.0764	636.0	11.449	21.89	14.05	1.68
	38.17	31.19	73.48	0.00	0.0666	11.57	509.1	398.42	0.0766	637.2	11.470	21.94	14.08	1.68
	39.17	31.17	73.51	0.00	0.0666	11.60	510.3	399.18	0.0768	637.4	11.473	21.94	14.08	1.68
	40.17	31.21	73.54	0.00	0.0666	11.57	509.1	398.19	0.0769	640.7	11.533	22.05	14.16	1.68
	41.18	31.19	73.48	-0.00	0.0664	11.54	507.8	397.42	0.0775	648.0	11.665	22.31	14.34	1.68
	42.18	31.19	73.51	0.00	0.0665	11.53	507.5	397.04	0.0771	649.3	11.688	22.35	14.37	1.68
	43.17	31.15	73.48	0.00	0.0665	11.57	509.1	398.31	0.0774	642.7	11.568	22.13	14.21	1.67
	44.18	31.15	73.51	0.00	0.0663	11.52	507.0	396.58	0.0783	653.9	11.770	22.51	14.47	1.68
	45.18	31.17	73.51	0.00	0.0666	11.57	509.1	398.21	0.0777	649.2	11.685	22.34	14.36	1.68
	46.21	31.15	73.51	-0.00	0.0663	11.54	507.8	397.23	0.0783	652.1	11.737	22.44	14.43	1.67
	47.17	31.15	73.51	0.00	0.0662	11.46	504.3	394.49	0.0790	671.6	12.090	23.12	14.89	1.68
	48.19	31.17	73.51	0.00	0.0663	11.49	505.6	395.49	0.0785	663.5	11.943	22.84	14.70	1.68
	49.25	31.19	73.54	0.00	0.0661	11.45	504.0	394.12	0.0791	668.8	12.038	23.01	14.83	1.68
	50.19	31.21	73.48	0.00	0.0661	11.45	503.8	394.30	0.0791	668.8	12.039	23.03	14.83	1.68
	51.18	31.21	73.51	0.00	0.0661	11.46	504.5	394.66	0.0789	664.7	11.964	22.88	14.73	1.68
	52.17	31.21	73.51	0.00	0.0660	11.43	503.0	393.54	0.0796	674.1	12.133	23.20	14.95	1.68
	53.18	31.21	73.48	0.00	0.0660	11.44	503.2	393.77	0.0793	671.3	12.084	23.12	14.88	1.68
	54.16	31.20	73.51	0.00	0.0659	11.42	502.6	393.23	0.0795	675.6	12.162	23.26	14.98	1.68
	55.19	31.21	73.51	-0.00	0.0661	11.44	503.4	393.82	0.0792	670.0	12.059	23.06	14.85	1.68
	56.18	31.25	73.51	0.00	0.0661	11.44	503.5	393.97	0.0792	667.6	12.017	22.99	14.80	1.68
	57.19	31.25	73.51	-0.00	0.0660	11.44	503.3	393.80	0.0795	671.9	12.094	23.13	14.90	1.68
	58.19	31.27	73.51	-0.00	0.0659	11.45	503.6	394.06	0.0800	676.6	12.178	23.29	15.01	1.68
	59.17	31.25	73.48	0.00	0.0658	11.40	501.7	392.69	0.0800	677.1	12.188	23.32	15.02	1.68
	60.26	31.27	73.51	-0.00	0.0659	11.42	502.5	393.24	0.0802	679.9	12.239	23.41	15.09	1.68
	61.18	31.24	73.51	-0.00	0.0658	11.40	501.6	392.44	0.0802	679.7	12.235	23.40	15.08	1.68
	62.17	31.23	73.48	0.00	0.0657	11.36	499.9	391.29	0.0804	688.0	12.385	23.69	15.27	1.68
	63.16	31.25	73.51	0.00	0.0658	11.39	501.0	392.03	0.0801	680.5	12.248	23.43	15.10	1.68
	64.16	31.27	73.51	0.00	0.0657	11.38	500.6	391.68	0.0803	683.4	12.300	23.53	15.16	1.68
	65.19	31.25	73.48	0.00	0.0658	11.38	500.5	391.80	0.0804	685.5	12.339	23.61	15.21	1.68
	66.19	31.25	73.54	-0.00	0.0658	11.41	501.9	392.55	0.0803	684.1	12.314	23.55	15.18	1.68
	67.27	31.23	73.48	-0.00	0.0658	11.38	500.8	391.95	0.0802	683.5	12.302	23.54	15.16	1.68
	68.17	31.23	73.48	0.00	0.0656	11.36	499.7	391.13	0.0810	684.1	12.314	23.56	15.18	1.68
	69.17	31.27	73.51	0.00	0.0656	11.34	499.1	390.58	0.0810	689.7	12.415	23.75	15.31	1.68
	70.19	31.25	73.51	-0.00	0.0655	11.33	498.5	390.09	0.0812	694.8	12.506	23.92	15.42	1.68
	71.17	31.27	73.51	0.00	0.0654	11.31	497.5	389.31	0.0811	691.9	12.454	23.82	15.36	1.68
	72.18	31.29	73.51	-0.00	0.0655	11.36	500.0	391.30	0.0814	689.9	12.419	23.76	15.31	1.68
	73.18	31.29	73.51	0.00	0.0655	11.33	498.6	390.17	0.0809	688.6	12.395	23.71	15.28	1.68
	74.18	31.27	73.51	0.00	0.0656	11.35	499.3	390.69	0.0808	688.8	12.399	23.72	15.29	1.68
	75.18	31.29	73.54	-0.00	0.0654	11.32	498.1	389.64	0.0819	700.3	12.605	24.10	15.55	1.68
	76.19	31.29	73.48	0.00	0.0654	11.30	497.2	389.21	0.0820	704.2	12.675	24.25	15.63	1.68
	77.17	31.31	73.54	0.00	0.0654	11.32	498.2	389.77	0.0821	698.8	12.578	24.05	15.51	1.68
	78.19	31.31	73.53	-0.00	0.0655	11.30	497.1	388.87	0.0821	707.1	12.729	24.34	15.70	1.68
	79.19	31.31	73.51	0.00	0.0654	11.30	497.2	389.13	0.0817	702.3	12.641	24.18	15.59	1.68
	80.17	31.31	73.51	0.00	0.0654	11.30	497.0	388.94	0.0817	702.2	12.640	24.18	15.59	1.68
	81.18	31.31	73.51	0.00	0.0653	11.29	496.6	388.64	0.0821	705.2	12.693	24.28	15.66	1.68
	82.18	31.35	73.54	-0.00	0.0653	11.26	495.5	387.73	0.0823	711.4	12.805	24.49	15.80	1.68
	83.19	31.29	73.51	-0.00	0.0651	11.25	494.9	387.26	0.0829	712.7	12.828	24.54	15.82	1.68
	84.16	31.35	73.51	0.00	0.0652	11.28	496.5	388.64	0.0830	713.9	12.850	24.59	15.85	1.68
	85.18	31.35	73.54	0.00	0.0652	11.24	494.5	386.88	0.0826	710.0	12.780	24.44	15.76	1.68
	86.17	31.33	73.51	-0.00	0.0655	11.36	499.6	391.06	0.0800	674.4	12.140	23.23	14.96	1.68
	87.17	31.30	73.54	0.00	0.0657	11.36	500.0	391.12	0.0801	676.9	12.184	23.30	15.02	1.68
	88.17	31.31	73.51	-0.00	0.0656	11.33	498.3	389.99	0.0805	682.9	12.292	23.52	15.16	1.68
	89.19	31.31	73.54	-0.00	0.0652	11.25	495.1	387.34	0.0814	697.9	12.562	24.02	15.49	1.68
	90.18	31.29	73.48	0.00	0.0654	11.29	496.9	389.00	0.0799	677.0	12.186	23.32	15.02	1.68
	91.17	31.31	73.51	0.00	0.0653	11.27	496.0	388.20	0.0810	688.4	12.391	23.70	15.28	1.68
	92.20	31.31	73.51	0.00	0.0653	11.28	496.4	388.50	0.0816	700.9	12.616	24.14	15.56	1.68
	93.26	31.31	73.51	0.00	0.0651	11.21	493.4	386.17	0.0825	720.1	12.961	24.79	15.98	1.68
	94.18	31.33	73.51	0.00	0.0652	11.27	495.8	388.05	0.0819	703.9	12.670	24.24	15.63	1.68
	95.18	31.35	73.51	-0.00	0.0654	11.29	496.7	388.78	0.0823	705.6	12.701	24.30	15.67	1.68
	96.17	31.35	73.54	0.00	0.0651	11.24	494.4	386.83	0.0833	717.1	12.908	24.69	15.92	1.68
	97.17	31.37	73.51	0.00	0.0650	11.24	494.5	387.08	0.0830	709.9	12.778	24.45	15.76	1.68
	98.19	31.35	73.51	-0.00	0.0652	11.27	496.0	388.19	0.0827	708.0	12.744	24.38	15.72	1.68
	99.17	31.34	73.54	0.00	0.0652	11.26	495.6	387.74	0.0830	716.0	12.888	24.65	15.90	1.68
	100.18	31.41	73.51	-0.00	0.0652	11.27	495.7	388.04	0.0824	713.7	12.846	24.58	15.85	1.68
	101.20	31.37	73.51	-0.00	0.0652	11.25	494.9	387.38	0.0825	709.2	12.766	24.43	15.75	1.68
	102.18	31.36	73.54	0.00	0.0651	11.24	494.6	387.01	0.0829	714.2	12.856	24.59	15.86	1.68
	103.18	31.39	73.51	0.00	0.0650	11.23	494.1	386.79	0.0837	724.6	13.042	24.96	16.08	1.68
	104.18	31.37	73.48	0.00	0.0651	11.25	495.0	387.61	0.0832	720.3	12.965	24.82	15.99	1.68
	105.18	31.38	73.54	0.00	0.0649	11.21	493.2	385.95	0.0838	725.2	13.053	24.97	16.10	1.68
	106.19	31.39	73.51	-0.00	0.0652	11.25	495.2	387.67	0.0832	721.1	12.979	24.84	16.01	1.68
	107.16	31.38	73.51	0.00	0.0651	11.22	493.8	386.51	0.0831	720.9	12.977	24.83	16.01	1.68
	108.17	31.43	73.51	0.00	0.0650	11.22	493.5	386.38	0.0837	730.0	13.139	25.15	16.20	1.69
	109.19	31.43	73.51	0.00	0.0648	11.22	493.7	386.51	0.0849	721.9	12.994	24.87	16.03	1.68
	110.18	31.40	73.51	0.00	0.0649	11.17	491.7	384.89	0.0855	750.3	13.506	25.84	16.63	1.68
	111.18	31.43	73.54	-0.00	0.0647	11.15	490.6	383.97	0.0856	751.2	13.521	25.87	16.65	1.68
	112.17	31.43	73.51	0.00	0.0647	11.14	490.2	383.82	0.0861	759.6	13.672	26.17	16.83	1.68
	113.18	31.43	73.51	0.00	0.0647	11.15	490.4	383.97	0.0856	750.9	13.517	25.87	16.65	1.68
	114.16	31.45	73.51	0.00	0.0647	11.15	490.7	384.22	0.0858	757.4	13.633	26.09	16.78	1.68
	115.19	31.41	73.51	-0.00	0.0646	11.12	489.3	383.04	0.0865	767.8	13.820	26.45	17.00	1.68
	116.25	31.45	73.51	0.00	0.0645	11.10	488.3	382.31	0.0876	778.0	14.004	26.80	17.21	1.68
	117.17	31.45	73.51	0.00	0.0645	11.09	487.8	381.93	0.0878	783.6	14.106	27.00	17.32	1.68
	118.19	31.43	73.51	0.00	0.0648	11.16	490.8	384.27	0.0864	760.1	13.681	26.18	16.84	1.68
