Jul 22 2015 at 10:04:51
Frequency: 1.00Hz.
CO2
Zero:  Value:0.95  Date:18 Mar 2005	 at 07:22:33	
Span:  Value:1.00  Date:18 Mar 2005	 at 07:25:09	
H2O
Zero:  Value:0.71  Date:18 Mar 2005	 at 07:52:31	
Span:  Value:0.99  Date:18 Mar 2005	 at 11:44:01	
	Relative Time	Temperature	Pressure	Aux Input	CO2 Absorptance	CO2 mmol/m3	CO2 mg/m3	CO2 umol/mol	H2O Absorptance	H2O mmol/m3	H2O g/m3	H2O mmol/mol	H2O(°C)	Cooler Voltage
	0.53	27.22	73.51	0.00	0.0693	12.17	535.6	413.54	0.0687	542.7	9.768	18.44	11.43	1.62
	1.54	27.26	73.48	-0.00	0.0692	12.17	535.5	413.69	0.0687	542.8	9.770	18.45	11.43	1.62
	2.53	27.23	73.48	-0.00	0.0692	12.17	535.3	413.46	0.0687	542.9	9.773	18.45	11.43	1.62
	3.54	27.24	73.53	-0.00	0.0692	12.16	534.9	412.91	0.0688	544.1	9.793	18.48	11.46	1.62
	4.52	27.25	73.51	-0.00	0.0691	12.15	534.6	412.81	0.0689	545.8	9.824	18.54	11.51	1.62
	5.52	27.27	73.48	0.00	0.0689	12.11	532.8	411.61	0.0687	543.5	9.783	18.47	11.45	1.62
	6.52	27.27	73.51	0.00	0.0690	12.12	533.5	411.94	0.0690	546.1	9.830	18.56	11.52	1.62
	7.54	27.27	73.48	-0.00	0.0691	12.16	534.9	413.18	0.0693	550.3	9.905	18.70	11.64	1.62
	8.52	27.29	73.48	0.00	0.0689	12.10	532.5	411.40	0.0689	545.9	9.826	18.56	11.52	1.62
	9.52	27.31	73.51	0.00	0.0687	12.06	530.6	409.84	0.0683	541.5	9.747	18.40	11.40	1.62
	10.51	27.29	73.48	0.00	0.0689	12.08	531.3	410.48	0.0688	541.5	9.746	18.41	11.40	1.61
	11.53	27.29	73.48	0.00	0.0691	12.15	534.6	413.02	0.0695	551.8	9.933	18.76	11.68	1.62
	12.51	27.29	73.48	0.00	0.0691	12.15	534.5	412.92	0.0695	552.7	9.948	18.79	11.71	1.62
	13.60	27.29	73.48	-0.00	0.0689	12.12	533.3	411.97	0.0690	549.6	9.892	18.68	11.62	1.62
	14.52	27.29	73.48	-0.00	0.0689	12.12	533.1	411.83	0.0693	550.8	9.915	18.72	11.65	1.62
	15.54	27.29	73.49	-0.00	0.0688	12.06	530.8	410.07	0.0688	543.9	9.790	18.49	11.46	1.62
	16.52	27.32	73.51	-0.00	0.0690	12.11	532.7	411.41	0.0696	552.1	9.938	18.76	11.69	1.61
	17.53	27.34	73.51	-0.00	0.0690	12.11	533.0	411.72	0.0698	555.0	9.990	18.86	11.77	1.61
	18.52	27.35	73.48	0.00	0.0688	12.07	531.0	410.31	0.0691	548.2	9.868	18.64	11.59	1.61
	19.52	27.35	73.54	0.00	0.0691	12.11	532.9	411.45	0.0702	555.9	10.007	18.89	11.80	1.61
	20.59	27.33	73.48	-0.00	0.0689	12.10	532.3	411.29	0.0696	555.4	9.998	18.88	11.78	1.62
	21.53	27.33	73.51	-0.00	0.0687	12.07	531.1	410.25	0.0692	550.9	9.916	18.72	11.66	1.62
	22.53	27.36	73.48	0.00	0.0687	12.06	530.5	409.94	0.0693	551.3	9.923	18.74	11.67	1.61
	23.51	27.41	73.54	0.00	0.0689	12.08	531.6	410.59	0.0697	554.2	9.975	18.83	11.75	1.62
	24.51	27.41	73.46	0.00	0.0689	12.08	531.6	410.99	0.0701	557.3	10.032	18.96	11.84	1.61
	25.52	27.41	73.48	0.00	0.0688	12.06	530.4	409.95	0.0697	551.1	9.920	18.74	11.67	1.61
	26.52	27.39	73.48	-0.00	0.0688	12.09	532.1	411.21	0.0698	559.6	10.073	19.03	11.90	1.62
	27.52	27.35	73.51	0.00	0.0688	12.08	531.7	410.71	0.0703	563.9	10.150	19.17	12.01	1.62
	28.52	27.38	73.48	0.00	0.0688	12.10	532.3	411.37	0.0703	567.3	10.211	19.29	12.11	1.61
	29.55	27.38	73.51	-0.00	0.0687	12.04	529.9	409.38	0.0700	555.7	10.002	18.89	11.79	1.61
	30.51	27.39	73.48	0.00	0.0688	12.07	531.1	410.44	0.0705	564.8	10.167	19.21	12.04	1.61
	31.54	27.39	73.51	-0.00	0.0688	12.07	531.2	410.35	0.0709	567.2	10.209	19.28	12.10	1.62
	32.53	27.39	73.51	-0.00	0.0688	12.07	531.3	410.41	0.0710	570.4	10.266	19.39	12.19	1.61
	33.54	27.41	73.51	-0.00	0.0687	12.04	529.7	409.25	0.0704	562.2	10.119	19.11	11.97	1.62
	34.52	27.36	73.51	0.00	0.0688	12.07	531.0	410.17	0.0714	570.0	10.260	19.37	12.18	1.61
	35.54	27.40	73.51	-0.00	0.0688	12.08	531.6	410.67	0.0718	578.4	10.412	19.66	12.40	1.61
	36.60	27.40	73.48	0.00	0.0688	12.07	531.1	410.45	0.0717	576.8	10.382	19.61	12.36	1.61
	37.53	27.40	73.48	-0.00	0.0688	12.07	531.0	410.34	0.0715	574.8	10.346	19.54	12.31	1.61
	38.52	27.45	73.48	0.00	0.0687	12.05	530.4	409.93	0.0714	571.5	10.287	19.44	12.22	1.62
	39.53	27.42	73.51	0.00	0.0687	12.06	530.8	410.10	0.0710	573.6	10.325	19.50	12.28	1.61
	40.51	27.44	73.51	0.00	0.0687	12.04	529.8	409.32	0.0711	569.3	10.248	19.35	12.16	1.61
	41.53	27.44	73.48	0.00	0.0688	12.08	531.5	410.82	0.0722	584.0	10.513	19.86	12.55	1.61
	42.51	27.46	73.48	0.00	0.0687	12.03	529.3	409.10	0.0720	576.4	10.376	19.60	12.35	1.61
	43.60	27.48	73.51	0.00	0.0687	12.06	530.8	410.17	0.0719	582.7	10.489	19.81	12.52	1.62
	44.52	27.46	73.48	-0.00	0.0685	11.99	527.5	407.76	0.0709	562.0	10.116	19.11	11.97	1.61
	45.54	27.48	73.48	-0.00	0.0687	12.03	529.4	409.28	0.0720	576.2	10.371	19.60	12.35	1.62
	46.52	27.48	73.51	0.00	0.0686	12.05	530.0	409.57	0.0719	582.6	10.486	19.81	12.51	1.61
	47.52	27.41	73.48	0.00	0.0686	12.01	528.5	408.44	0.0715	569.9	10.257	19.38	12.18	1.61
	48.52	27.46	73.48	-0.00	0.0686	12.04	529.8	409.49	0.0720	581.2	10.462	19.77	12.48	1.62
	49.53	27.46	73.48	-0.00	0.0687	12.02	529.1	408.99	0.0723	579.3	10.427	19.70	12.43	1.62
	50.51	27.42	73.51	0.00	0.0686	12.05	530.0	409.48	0.0720	585.2	10.533	19.89	12.58	1.61
	51.51	27.44	73.48	0.00	0.0687	12.05	530.0	409.66	0.0728	588.4	10.592	20.01	12.67	1.61
	52.51	27.44	73.48	0.00	0.0685	12.02	528.7	408.66	0.0717	579.1	10.423	19.69	12.42	1.61
	53.51	27.44	73.48	0.00	0.0686	12.01	528.3	408.36	0.0717	572.2	10.300	19.46	12.24	1.61
	54.52	27.44	73.48	-0.00	0.0685	12.01	528.5	408.51	0.0722	585.9	10.545	19.92	12.60	1.62
	55.52	27.46	73.51	0.00	0.0685	11.99	527.6	407.66	0.0720	574.1	10.333	19.52	12.29	1.62
	56.50	27.42	73.51	0.00	0.0686	12.01	528.4	408.28	0.0724	586.0	10.547	19.92	12.60	1.62
	57.52	27.42	73.56	0.00	0.0686	12.03	529.4	408.77	0.0731	595.9	10.727	20.24	12.86	1.61
	58.50	27.42	73.48	0.00	0.0686	12.01	528.6	408.54	0.0724	582.8	10.491	19.82	12.52	1.61
	59.53	27.42	73.48	0.00	0.0686	12.01	528.5	408.49	0.0731	593.5	10.682	20.18	12.79	1.62
	60.51	27.42	73.48	0.00	0.0684	11.99	527.6	407.76	0.0719	584.8	10.526	19.89	12.57	1.62
	61.53	27.44	73.46	0.00	0.0685	11.99	527.7	407.99	0.0720	579.6	10.433	19.72	12.44	1.62
	62.52	27.42	73.48	0.00	0.0686	12.02	528.9	408.76	0.0736	589.9	10.617	20.06	12.70	1.61
	63.52	27.44	73.48	0.00	0.0686	12.04	529.8	409.54	0.0741	607.2	10.929	20.65	13.14	1.62
	64.52	27.42	73.48	0.00	0.0685	12.01	528.5	408.50	0.0740	606.1	10.910	20.61	13.12	1.62
	65.52	27.42	73.48	0.00	0.0686	12.00	528.1	408.13	0.0738	598.8	10.778	20.36	12.93	1.62
	66.52	27.46	73.48	0.00	0.0685	12.00	528.1	408.22	0.0740	601.3	10.824	20.45	13.00	1.62
	67.53	27.46	73.48	-0.00	0.0685	11.99	527.4	407.71	0.0740	601.4	10.825	20.45	13.00	1.62
	68.53	27.44	73.46	-0.00	0.0684	11.99	527.7	408.05	0.0737	608.3	10.949	20.69	13.17	1.61
	69.59	27.46	73.51	0.00	0.0684	12.00	527.8	407.85	0.0735	603.9	10.870	20.53	13.06	1.62
	70.53	27.46	73.48	-0.00	0.0684	11.99	527.4	407.64	0.0732	597.7	10.758	20.33	12.90	1.62
	71.53	27.44	73.54	-0.00	0.0684	11.97	526.8	406.94	0.0727	588.2	10.587	19.99	12.66	1.61
	72.51	27.44	73.48	0.00	0.0684	11.99	527.5	407.70	0.0733	602.4	10.842	20.49	13.02	1.62
	73.52	27.42	73.48	0.00	0.0684	11.99	527.5	407.69	0.0740	605.8	10.904	20.60	13.11	1.62
	74.52	27.44	73.51	-0.00	0.0684	11.98	527.1	407.26	0.0734	602.0	10.837	20.47	13.01	1.61
	75.53	27.45	73.48	-0.00	0.0685	11.99	527.5	407.75	0.0751	617.7	11.119	21.01	13.41	1.61
	76.52	27.42	73.48	0.00	0.0683	11.97	526.9	407.20	0.0739	608.6	10.955	20.70	13.18	1.62
	77.53	27.42	73.48	-0.00	0.0684	11.97	526.9	407.21	0.0751	617.8	11.121	21.01	13.41	1.62
	78.52	27.42	73.48	0.00	0.0682	11.94	525.2	405.94	0.0730	593.6	10.684	20.18	12.80	1.62
	79.53	27.43	73.51	0.00	0.0684	11.98	526.9	407.13	0.0748	608.5	10.953	20.69	13.18	1.62
	80.53	27.42	73.48	-0.00	0.0683	11.96	526.2	406.69	0.0742	609.6	10.973	20.73	13.21	1.61
	81.53	27.42	73.46	-0.00	0.0684	11.99	527.4	407.73	0.0748	601.0	10.818	20.44	12.99	1.61
	82.51	27.44	73.51	0.00	0.0684	11.98	527.1	407.24	0.0758	626.0	11.268	21.28	13.61	1.62
	83.52	27.46	73.51	0.00	0.0684	11.99	527.4	407.51	0.0764	631.4	11.365	21.47	13.75	1.62
	84.52	27.46	73.48	0.00	0.0682	11.94	525.3	406.02	0.0746	618.2	11.127	21.03	13.42	1.62
	85.52	27.48	73.48	-0.00	0.0682	11.92	524.5	405.45	0.0732	603.1	10.855	20.51	13.04	1.62
	86.52	27.48	73.46	-0.00	0.0683	11.96	526.3	407.00	0.0754	620.6	11.171	21.12	13.48	1.62
	87.59	27.46	73.48	-0.00	0.0683	11.96	526.1	406.68	0.0759	623.5	11.222	21.20	13.55	1.62
	88.53	27.46	73.53	-0.00	0.0683	11.96	526.4	406.65	0.0760	627.7	11.299	21.34	13.66	1.62
	89.54	27.42	73.51	-0.00	0.0683	11.94	525.4	405.93	0.0755	616.8	11.103	20.97	13.39	1.62
	90.53	27.46	73.48	0.00	0.0683	11.96	526.1	406.63	0.0766	637.4	11.473	21.68	13.89	1.62
	91.53	27.53	73.51	0.00	0.0682	11.94	525.5	406.17	0.0759	631.4	11.366	21.47	13.75	1.62
	92.52	27.48	73.48	-0.00	0.0681	11.91	524.0	405.10	0.0755	626.6	11.279	21.31	13.63	1.62
	93.52	27.46	73.46	0.00	0.0681	11.92	524.5	405.60	0.0748	617.4	11.114	21.01	13.40	1.62
	94.52	27.50	73.51	0.00	0.0682	11.93	524.8	405.55	0.0763	624.1	11.235	21.22	13.57	1.62
	95.53	27.48	73.48	-0.00	0.0680	11.92	524.6	405.51	0.0752	629.0	11.322	21.39	13.69	1.62
	96.52	27.50	73.46	0.00	0.0683	11.94	525.3	406.25	0.0764	631.1	11.360	21.48	13.74	1.62
	97.53	27.50	73.48	-0.00	0.0682	11.95	525.7	406.43	0.0772	645.0	11.610	21.94	14.08	1.62
	98.53	27.50	73.48	0.00	0.0681	11.91	524.2	405.25	0.0753	616.2	11.092	20.96	13.37	1.62
	99.53	27.52	73.51	-0.00	0.0681	11.93	524.8	405.63	0.0762	634.4	11.419	21.57	13.82	1.62
	100.51	27.53	73.54	0.00	0.0681	11.92	524.6	405.29	0.0772	643.2	11.578	21.87	14.04	1.62
	101.53	27.52	73.51	0.00	0.0681	11.91	523.9	404.93	0.0768	639.4	11.510	21.74	13.94	1.62
	102.52	27.52	73.48	0.00	0.0681	11.93	524.8	405.73	0.0776	651.1	11.719	22.15	14.22	1.62
	103.60	27.56	73.51	0.00	0.0681	11.90	523.4	404.57	0.0764	637.1	11.467	21.67	13.89	1.62
	104.52	27.53	73.46	-0.00	0.0681	11.90	523.8	405.11	0.0776	650.1	11.702	22.12	14.20	1.62
	105.53	27.53	73.48	-0.00	0.0681	11.90	523.6	404.83	0.0767	638.8	11.498	21.73	13.93	1.62
	106.52	27.55	73.51	0.00	0.0680	11.91	524.2	405.15	0.0757	625.6	11.260	21.28	13.61	1.62
	107.52	27.53	73.48	0.00	0.0681	11.91	523.9	405.09	0.0764	629.0	11.322	21.40	13.69	1.62
	108.51	27.53	73.51	0.00	0.0681	11.90	523.5	404.61	0.0762	633.0	11.395	21.53	13.79	1.62
	109.53	27.53	73.48	-0.00	0.0681	11.91	524.1	405.18	0.0767	628.4	11.311	21.38	13.68	1.62
	110.51	27.53	73.51	0.00	0.0681	11.91	523.9	404.88	0.0775	642.1	11.557	21.84	14.01	1.62
	111.53	27.55	73.48	-0.00	0.0680	11.89	523.3	404.61	0.0768	639.8	11.516	21.77	13.95	1.62
	112.51	27.51	73.48	-0.00	0.0680	11.90	523.4	404.64	0.0777	654.7	11.785	22.27	14.31	1.62
	113.60	27.55	73.48	0.00	0.0680	11.89	523.1	404.51	0.0766	642.1	11.558	21.85	14.01	1.62
	114.54	27.55	73.48	-0.00	0.0680	11.87	522.2	403.81	0.0773	637.9	11.483	21.70	13.91	1.62
	115.52	27.55	73.48	0.00	0.0680	11.89	523.3	404.66	0.0769	644.3	11.597	21.92	14.06	1.62
	116.53	27.55	73.51	-0.00	0.0680	11.89	523.2	404.41	0.0769	636.5	11.456	21.65	13.87	1.62
	117.53	27.55	73.46	0.00	0.0679	11.89	523.4	404.81	0.0778	654.7	11.785	22.28	14.31	1.62
	118.51	27.53	73.51	0.00	0.0679	11.87	522.4	403.75	0.0774	647.2	11.650	22.01	14.13	1.62
	119.53	27.55	73.51	0.00	0.0680	11.88	522.8	404.13	0.0782	657.2	11.829	22.35	14.37	1.62
	120.51	27.55	73.48	0.00	0.0680	11.89	523.3	404.61	0.0791	665.4	11.977	22.64	14.56	1.62
	121.53	27.55	73.51	-0.00	0.0678	11.85	521.3	402.91	0.0780	652.3	11.741	22.18	14.25	1.62
	122.52	27.53	73.51	0.00	0.0678	11.84	521.1	402.77	0.0781	652.9	11.751	22.20	14.26	1.62
	123.54	27.58	73.48	-0.00	0.0678	11.84	521.1	402.98	0.0767	639.4	11.509	21.76	13.95	1.62
	124.60	27.51	73.48	-0.00	0.0680	11.87	522.3	403.81	0.0778	652.6	11.747	22.20	14.26	1.62
	125.52	27.57	73.51	0.00	0.0679	11.88	522.8	404.11	0.0788	663.9	11.950	22.58	14.53	1.62
	126.52	27.53	73.51	0.00	0.0679	11.85	521.2	402.83	0.0779	648.9	11.681	22.07	14.17	1.62
	127.50	27.51	73.49	0.00	0.0679	11.88	522.5	403.96	0.0765	636.4	11.456	21.65	13.87	1.62
	128.53	27.55	73.51	-0.00	0.0679	11.87	522.4	403.80	0.0781	656.1	11.810	22.31	14.34	1.62
