Jul 22 2015 at 9:51:45
Frequency: 1.00Hz.
CO2
Zero:  Value:0.95  Date:18 Mar 2005	 at 07:22:33	
Span:  Value:1.00  Date:18 Mar 2005	 at 07:25:09	
H2O
Zero:  Value:0.71  Date:18 Mar 2005	 at 07:52:31	
Span:  Value:0.99  Date:18 Mar 2005	 at 11:44:01	
	Relative Time	Temperature	Pressure	Aux Input	CO2 Absorptance	CO2 mmol/m3	CO2 mg/m3	CO2 umol/mol	H2O Absorptance	H2O mmol/m3	H2O g/m3	H2O mmol/mol	H2O(°C)	Cooler Voltage
	0.97	24.92	73.46	-0.00	0.0703	12.42	546.5	419.02	0.0680	534.5	9.621	18.03	11.08	1.60
	1.97	24.90	73.48	0.00	0.0704	12.45	547.8	419.80	0.0679	533.6	9.605	17.99	11.05	1.60
	2.96	24.90	73.46	-0.00	0.0705	12.47	548.8	420.73	0.0680	535.3	9.636	18.06	11.10	1.60
	3.98	24.93	73.48	0.00	0.0705	12.46	548.4	420.34	0.0679	533.0	9.594	17.97	11.04	1.60
	4.96	24.95	73.46	0.00	0.0704	12.42	546.5	419.09	0.0678	532.4	9.583	17.96	11.02	1.60
	5.97	24.97	73.46	0.00	0.0703	12.41	546.2	418.82	0.0679	532.7	9.589	17.98	11.03	1.60
	7.04	24.99	73.48	0.00	0.0702	12.40	545.5	418.19	0.0681	535.8	9.644	18.07	11.12	1.60
	7.97	24.96	73.48	0.00	0.0702	12.40	545.4	418.09	0.0681	535.2	9.633	18.05	11.10	1.60
	8.97	25.00	73.48	0.00	0.0699	12.38	544.7	417.63	0.0684	537.7	9.678	18.14	11.17	1.60
	9.97	24.96	73.48	0.00	0.0699	12.33	542.4	415.75	0.0684	539.1	9.704	18.18	11.21	1.60
	11.04	24.95	73.49	-0.00	0.0701	12.36	544.0	416.96	0.0682	537.5	9.675	18.13	11.17	1.60
	11.96	24.97	73.48	-0.00	0.0701	12.37	544.4	417.36	0.0681	536.7	9.660	18.10	11.14	1.60
	12.98	24.95	73.48	-0.00	0.0702	12.41	546.1	418.61	0.0682	538.1	9.687	18.15	11.18	1.60
	13.95	24.99	73.48	0.00	0.0702	12.39	545.1	417.85	0.0683	538.1	9.685	18.15	11.18	1.60
	14.98	24.97	73.48	-0.00	0.0701	12.37	544.3	417.21	0.0682	537.2	9.669	18.12	11.16	1.60
	15.96	24.99	73.46	0.00	0.0701	12.37	544.3	417.43	0.0683	537.6	9.677	18.14	11.17	1.60
	16.97	24.97	73.46	-0.00	0.0700	12.35	543.5	416.79	0.0682	537.0	9.666	18.12	11.15	1.60
	17.96	24.99	73.48	0.00	0.0700	12.34	543.1	416.38	0.0681	536.2	9.652	18.09	11.13	1.60
	18.95	24.99	73.46	0.00	0.0700	12.33	542.6	416.10	0.0682	536.6	9.659	18.11	11.14	1.60
	19.95	24.97	73.51	0.00	0.0700	12.34	543.1	416.19	0.0683	537.5	9.676	18.12	11.17	1.60
	20.97	24.99	73.48	-0.00	0.0700	12.35	543.6	416.70	0.0683	538.1	9.685	18.15	11.18	1.60
	21.98	24.99	73.46	-0.00	0.0699	12.33	542.7	416.16	0.0684	538.0	9.683	18.15	11.18	1.60
	22.96	25.00	73.48	0.00	0.0699	12.32	542.2	415.68	0.0684	539.6	9.713	18.20	11.23	1.60
	23.98	25.00	73.51	-0.00	0.0699	12.32	542.2	415.52	0.0683	539.6	9.714	18.20	11.23	1.60
	24.96	25.00	73.48	-0.00	0.0699	12.33	542.5	415.92	0.0685	540.0	9.720	18.22	11.24	1.60
	25.97	24.99	73.48	-0.00	0.0699	12.33	542.5	415.92	0.0686	540.2	9.724	18.22	11.24	1.60
	27.04	25.00	73.48	-0.00	0.0700	12.34	543.1	416.40	0.0685	540.0	9.720	18.22	11.24	1.60
	27.94	25.02	73.46	0.00	0.0699	12.34	542.8	416.32	0.0684	538.4	9.691	18.17	11.19	1.60
	28.97	25.00	73.48	0.00	0.0699	12.33	542.4	415.80	0.0683	538.0	9.683	18.15	11.18	1.60
	29.97	25.00	73.54	-0.00	0.0699	12.33	542.5	415.59	0.0684	539.5	9.711	18.19	11.23	1.60
	30.97	25.02	73.48	0.00	0.0698	12.30	541.3	414.99	0.0687	542.2	9.759	18.29	11.30	1.60
	31.98	25.02	73.48	0.00	0.0698	12.30	541.0	414.80	0.0686	541.9	9.755	18.28	11.29	1.60
	32.96	25.04	73.48	0.00	0.0698	12.30	541.3	415.06	0.0686	541.5	9.747	18.27	11.28	1.60
	34.05	25.02	73.48	-0.00	0.0699	12.31	541.5	415.15	0.0687	541.9	9.754	18.28	11.29	1.60
	34.98	25.01	73.48	0.00	0.0696	12.26	539.6	413.74	0.0691	546.2	9.831	18.42	11.41	1.60
	35.96	25.04	73.48	0.00	0.0696	12.25	539.0	413.30	0.0691	546.2	9.831	18.43	11.41	1.60
	36.96	25.02	73.48	0.00	0.0696	12.25	539.0	413.22	0.0691	547.2	9.849	18.46	11.44	1.60
	37.97	25.06	73.48	0.00	0.0696	12.27	539.7	413.81	0.0694	551.6	9.929	18.61	11.56	1.60
	38.97	25.02	73.48	-0.00	0.0695	12.24	538.6	412.97	0.0693	549.0	9.882	18.52	11.49	1.60
	39.95	25.02	73.48	0.00	0.0694	12.22	537.7	412.28	0.0693	546.9	9.845	18.45	11.43	1.60
	40.97	25.02	73.48	-0.00	0.0694	12.22	537.6	412.14	0.0694	550.2	9.903	18.56	11.52	1.60
	41.96	25.02	73.51	-0.00	0.0695	12.23	538.1	412.44	0.0692	548.7	9.876	18.50	11.48	1.60
	42.96	25.04	73.48	0.00	0.0694	12.22	537.7	412.28	0.0695	550.2	9.904	18.56	11.52	1.60
	43.96	25.01	73.48	0.00	0.0694	12.21	537.3	411.97	0.0694	550.8	9.915	18.58	11.54	1.60
	44.96	25.02	73.46	0.00	0.0694	12.21	537.1	411.96	0.0695	551.4	9.925	18.61	11.56	1.60
	45.96	25.04	73.48	0.00	0.0693	12.20	536.7	411.54	0.0695	551.5	9.928	18.61	11.56	1.60
	46.96	25.03	73.48	0.00	0.0693	12.19	536.4	411.26	0.0694	551.0	9.917	18.59	11.54	1.60
	47.99	25.04	73.46	-0.00	0.0694	12.20	536.8	411.75	0.0696	552.5	9.945	18.65	11.59	1.60
	48.97	25.06	73.51	-0.00	0.0693	12.19	536.3	411.11	0.0696	553.6	9.965	18.67	11.62	1.60
	49.95	25.05	73.48	0.00	0.0694	12.20	536.7	411.51	0.0697	554.1	9.975	18.70	11.63	1.60
	50.95	25.08	73.48	0.00	0.0693	12.18	536.0	411.00	0.0697	554.0	9.972	18.69	11.63	1.60
	51.95	25.06	73.48	0.00	0.0693	12.19	536.5	411.38	0.0696	553.9	9.970	18.69	11.63	1.61
	53.02	25.05	73.48	0.00	0.0693	12.19	536.5	411.37	0.0697	553.7	9.967	18.68	11.62	1.60
	53.98	25.06	73.46	-0.00	0.0692	12.16	535.1	410.46	0.0698	555.8	10.004	18.76	11.68	1.60
	54.96	25.07	73.48	-0.00	0.0692	12.18	535.8	410.91	0.0700	557.2	10.029	18.80	11.72	1.60
	55.94	25.04	73.48	0.00	0.0693	12.19	536.2	411.16	0.0699	556.2	10.012	18.76	11.69	1.60
	56.96	25.07	73.48	0.00	0.0693	12.19	536.4	411.36	0.0698	554.3	9.978	18.70	11.64	1.60
	57.97	25.05	73.51	-0.00	0.0693	12.20	536.6	411.33	0.0697	554.0	9.973	18.69	11.63	1.61
	58.95	25.06	73.48	0.00	0.0693	12.20	536.7	411.52	0.0696	554.1	9.974	18.70	11.63	1.61
	59.97	25.06	73.48	0.00	0.0693	12.19	536.4	411.30	0.0698	555.3	9.995	18.74	11.66	1.60
	60.98	25.12	73.51	-0.00	0.0692	12.16	535.0	410.14	0.0701	558.6	10.054	18.84	11.76	1.60
	61.96	25.07	73.48	-0.00	0.0692	12.16	535.1	410.35	0.0701	558.1	10.045	18.83	11.74	1.60
	62.96	25.07	73.48	0.00	0.0692	12.16	535.0	410.25	0.0701	557.1	10.028	18.80	11.71	1.61
	64.05	25.07	73.48	-0.00	0.0692	12.16	535.1	410.30	0.0701	558.2	10.047	18.83	11.74	1.61
	64.97	25.09	73.48	-0.00	0.0691	12.15	534.7	410.04	0.0700	558.0	10.044	18.83	11.74	1.61
	65.97	25.09	73.48	-0.00	0.0691	12.15	534.5	409.86	0.0698	555.4	9.998	18.74	11.67	1.60
	66.97	25.09	73.48	-0.00	0.0691	12.14	534.2	409.70	0.0701	558.8	10.058	18.85	11.76	1.60
	67.95	25.09	73.51	0.00	0.0692	12.15	534.7	409.92	0.0701	557.7	10.039	18.81	11.73	1.60
	69.03	25.11	73.48	0.00	0.0691	12.13	533.7	409.30	0.0701	557.3	10.032	18.81	11.72	1.61
	69.97	25.11	73.48	-0.00	0.0690	12.13	533.5	409.19	0.0701	559.1	10.063	18.87	11.77	1.61
	70.97	25.13	73.51	0.00	0.0692	12.16	535.0	410.17	0.0700	557.7	10.039	18.82	11.73	1.61
	71.95	25.13	73.48	0.00	0.0692	12.15	534.8	410.16	0.0702	559.8	10.076	18.89	11.79	1.61
	72.96	25.15	73.48	0.00	0.0692	12.16	535.0	410.36	0.0702	559.8	10.076	18.89	11.79	1.61
	73.94	25.14	73.48	0.00	0.0692	12.16	535.0	410.38	0.0703	560.7	10.093	18.92	11.82	1.61
	74.97	25.13	73.51	-0.00	0.0691	12.15	534.5	409.82	0.0703	560.6	10.092	18.91	11.81	1.61
	75.96	25.11	73.48	-0.00	0.0691	12.15	534.5	409.96	0.0703	561.1	10.100	18.93	11.82	1.61
	76.97	25.13	73.48	-0.00	0.0690	12.13	533.6	409.28	0.0702	560.5	10.090	18.92	11.81	1.61
	77.95	25.18	73.48	0.00	0.0690	12.12	533.2	409.04	0.0704	561.8	10.113	18.96	11.85	1.61
	78.97	25.13	73.48	-0.00	0.0690	12.12	533.4	409.12	0.0704	560.7	10.093	18.92	11.81	1.61
	79.97	25.15	73.48	0.00	0.0690	12.12	533.1	408.91	0.0707	565.2	10.174	19.08	11.94	1.61
	80.98	25.15	73.46	-0.00	0.0690	12.12	533.5	409.35	0.0706	563.4	10.141	19.02	11.89	1.61
	81.96	25.14	73.48	0.00	0.0689	12.09	532.0	408.07	0.0707	566.0	10.188	19.10	11.96	1.61
	82.98	25.19	73.48	-0.00	0.0688	12.09	531.7	407.93	0.0706	564.3	10.158	19.05	11.91	1.61
	83.96	25.16	73.48	0.00	0.0689	12.10	532.5	408.50	0.0707	565.1	10.172	19.07	11.93	1.61
	84.97	25.18	73.48	0.00	0.0689	12.11	532.7	408.65	0.0708	566.7	10.201	19.13	11.98	1.61
	85.96	25.20	73.48	0.00	0.0688	12.08	531.6	407.81	0.0707	565.6	10.181	19.09	11.95	1.61
	86.97	25.20	73.48	0.00	0.0689	12.09	532.0	408.10	0.0708	565.8	10.184	19.10	11.95	1.61
	87.95	25.22	73.48	0.00	0.0689	12.10	532.5	408.52	0.0707	566.3	10.193	19.12	11.97	1.61
	88.98	25.18	73.46	-0.00	0.0689	12.10	532.3	408.51	0.0707	566.7	10.200	19.13	11.98	1.61
	89.95	25.18	73.48	0.00	0.0689	12.08	531.7	407.89	0.0707	566.0	10.189	19.11	11.96	1.61
	90.96	25.18	73.48	0.00	0.0690	12.11	532.7	408.65	0.0708	567.1	10.208	19.14	11.99	1.61
	91.96	25.20	73.46	0.00	0.0689	12.08	531.7	408.07	0.0708	567.0	10.207	19.15	11.99	1.61
	92.98	25.20	73.48	-0.00	0.0689	12.10	532.3	408.34	0.0709	568.4	10.231	19.19	12.02	1.61
	93.96	25.20	73.43	0.00	0.0687	12.07	531.1	407.69	0.0708	567.3	10.211	19.16	11.99	1.61
	94.97	25.20	73.48	-0.00	0.0687	12.08	531.3	407.59	0.0708	567.6	10.217	19.16	12.00	1.61
	95.97	25.22	73.48	-0.00	0.0687	12.04	529.5	406.28	0.0708	567.7	10.219	19.17	12.01	1.61
	96.97	25.20	73.48	0.00	0.0687	12.05	530.0	406.61	0.0709	567.2	10.210	19.15	11.99	1.61
	97.95	25.20	73.48	0.00	0.0688	12.06	530.8	407.23	0.0708	566.8	10.202	19.13	11.98	1.61
	98.97	25.22	73.48	-0.00	0.0688	12.08	531.5	407.75	0.0708	567.1	10.208	19.14	11.99	1.61
	99.95	25.22	73.46	0.00	0.0688	12.08	531.5	407.94	0.0709	567.7	10.219	19.17	12.01	1.61
	100.96	25.22	73.48	0.00	0.0689	12.08	531.7	407.95	0.0710	569.0	10.243	19.21	12.04	1.61
	101.96	25.22	73.48	0.00	0.0688	12.07	531.3	407.59	0.0710	569.3	10.247	19.22	12.05	1.61
	103.04	25.21	73.48	0.00	0.0687	12.05	530.3	406.82	0.0709	567.0	10.205	19.14	11.99	1.61
	103.96	25.26	73.48	-0.00	0.0688	12.08	531.5	407.80	0.0711	569.7	10.254	19.23	12.06	1.61
	104.97	25.22	73.51	-0.00	0.0689	12.09	531.9	407.96	0.0710	569.6	10.253	19.22	12.06	1.61
	105.96	25.26	73.48	-0.00	0.0688	12.08	531.4	407.74	0.0710	569.7	10.254	19.23	12.06	1.61
	106.95	25.24	73.46	0.00	0.0688	12.07	530.9	407.48	0.0711	570.5	10.270	19.27	12.08	1.61
	107.95	25.22	73.46	-0.00	0.0688	12.06	530.8	407.40	0.0711	570.5	10.269	19.27	12.08	1.61
	108.95	25.24	73.51	0.00	0.0687	12.06	530.8	407.16	0.0712	572.5	10.304	19.32	12.13	1.61
	109.95	25.24	73.48	0.00	0.0686	12.03	529.2	406.05	0.0712	570.9	10.276	19.27	12.09	1.61
	110.95	25.24	73.48	0.00	0.0686	12.03	529.3	406.11	0.0711	570.1	10.261	19.25	12.07	1.61
	111.96	25.28	73.48	0.00	0.0687	12.04	529.9	406.63	0.0712	571.3	10.283	19.29	12.11	1.61
	113.04	25.28	73.51	0.00	0.0687	12.05	530.4	406.86	0.0712	571.2	10.282	19.28	12.10	1.61
	113.96	25.25	73.48	0.00	0.0687	12.04	530.0	406.65	0.0712	571.5	10.287	19.29	12.11	1.61
	114.97	25.25	73.48	0.00	0.0687	12.04	529.6	406.40	0.0712	572.1	10.298	19.31	12.13	1.61
	115.96	25.25	73.48	0.00	0.0687	12.04	529.9	406.63	0.0711	570.4	10.268	19.26	12.08	1.61
	117.05	25.25	73.51	-0.00	0.0687	12.03	529.2	405.93	0.0710	568.7	10.236	19.19	12.03	1.61
	117.95	25.25	73.48	0.00	0.0687	12.04	529.7	406.39	0.0711	569.8	10.257	19.24	12.06	1.61
	118.98	25.27	73.48	-0.00	0.0687	12.04	529.8	406.52	0.0711	570.7	10.273	19.27	12.09	1.61
	119.95	25.27	73.48	0.00	0.0686	12.04	529.8	406.57	0.0711	570.2	10.263	19.25	12.08	1.61
	120.98	25.27	73.51	-0.00	0.0687	12.04	529.9	406.51	0.0711	570.4	10.267	19.25	12.08	1.61
	121.96	25.27	73.48	0.00	0.0687	12.05	530.2	406.89	0.0711	571.2	10.282	19.29	12.10	1.62
