Jul 22 2015 at 12:27:15
Frequency: 1.00Hz.
CO2
Zero:  Value:0.95  Date:18 Mar 2005	 at 07:22:33	
Span:  Value:1.00  Date:18 Mar 2005	 at 07:25:09	
H2O
Zero:  Value:0.71  Date:18 Mar 2005	 at 07:52:31	
Span:  Value:0.99  Date:18 Mar 2005	 at 11:44:01	
	Relative Time	Temperature	Pressure	Aux Input	CO2 Absorptance	CO2 mmol/m3	CO2 mg/m3	CO2 umol/mol	H2O Absorptance	H2O mmol/m3	H2O g/m3	H2O mmol/mol	H2O(°C)	Cooler Voltage
	0.94	34.36	73.51	0.00	0.0650	11.21	493.2	389.86	0.0653	507.8	9.141	17.66	10.78	1.77
	1.94	34.39	73.46	0.00	0.0650	11.21	493.3	390.28	0.0650	506.3	9.114	17.62	10.74	1.77
	2.93	34.37	73.53	0.00	0.0649	11.20	492.7	389.31	0.0657	506.7	9.121	17.62	10.75	1.77
	3.93	34.39	73.51	0.00	0.0649	11.19	492.5	389.32	0.0661	510.5	9.189	17.76	10.86	1.77
	4.99	34.39	73.51	0.00	0.0649	11.20	493.0	389.71	0.0672	524.4	9.439	18.24	11.26	1.77
	5.93	34.39	73.48	-0.00	0.0650	11.21	493.0	389.90	0.0671	525.6	9.460	18.29	11.30	1.77
	6.93	34.39	73.46	-0.00	0.0650	11.21	493.4	390.31	0.0668	521.1	9.379	18.14	11.17	1.77
	7.92	34.39	73.48	-0.00	0.0650	11.22	493.9	390.54	0.0656	511.3	9.203	17.79	10.88	1.77
	8.92	34.38	73.48	0.00	0.0651	11.24	494.8	391.24	0.0647	497.2	8.950	17.30	10.46	1.77
	9.91	34.38	73.48	0.00	0.0652	11.26	495.2	391.62	0.0655	510.2	9.184	17.75	10.85	1.77
	10.94	34.37	73.48	0.00	0.0652	11.26	495.6	391.89	0.0647	497.0	8.946	17.29	10.46	1.77
	11.92	34.39	73.46	0.00	0.0650	11.23	494.0	390.82	0.0653	504.4	9.079	17.56	10.68	1.77
	12.93	34.38	73.51	0.00	0.0648	11.20	492.6	389.41	0.0647	499.9	8.998	17.39	10.54	1.77
	13.93	34.39	73.51	0.00	0.0647	11.16	491.2	388.27	0.0636	487.2	8.769	16.95	10.16	1.77
	14.95	34.38	73.51	0.00	0.0647	11.15	490.5	387.74	0.0653	500.3	9.006	17.40	10.56	1.77
	15.93	34.39	73.48	-0.00	0.0646	11.14	490.0	387.50	0.0654	506.3	9.113	17.62	10.74	1.77
	16.93	34.38	73.51	0.00	0.0649	11.18	492.1	389.02	0.0632	486.2	8.752	16.91	10.13	1.77
	17.91	34.39	73.51	0.00	0.0652	11.28	496.1	392.21	0.0625	475.2	8.554	16.53	9.79	1.77
	18.92	34.41	73.51	0.00	0.0652	11.26	495.6	391.79	0.0625	477.2	8.590	16.60	9.85	1.77
	19.91	34.41	73.48	0.00	0.0653	11.26	495.5	391.86	0.0631	481.8	8.672	16.76	9.99	1.77
	20.94	34.40	73.48	-0.00	0.0653	11.27	495.9	392.19	0.0632	481.1	8.660	16.74	9.97	1.77
	21.92	34.41	73.48	0.00	0.0653	11.27	496.0	392.24	0.0635	482.6	8.686	16.79	10.02	1.77
	22.95	34.38	73.48	0.00	0.0652	11.28	496.2	392.36	0.0636	485.2	8.733	16.88	10.10	1.77
	23.99	34.41	73.51	0.00	0.0652	11.27	496.1	392.19	0.0637	486.9	8.765	16.94	10.15	1.77
	24.95	34.38	73.48	-0.00	0.0652	11.27	495.9	392.16	0.0640	490.7	8.833	17.07	10.27	1.77
	25.93	34.41	73.51	0.00	0.0652	11.25	495.0	391.34	0.0640	489.1	8.803	17.01	10.22	1.78
	26.94	34.44	73.48	-0.00	0.0651	11.24	494.4	391.04	0.0638	488.8	8.798	17.01	10.21	1.77
	27.92	34.41	73.51	0.00	0.0652	11.27	495.8	391.95	0.0642	493.0	8.875	17.15	10.34	1.77
	28.94	34.41	73.51	-0.00	0.0653	11.26	495.4	391.70	0.0645	496.1	8.930	17.26	10.43	1.77
	29.92	34.41	73.51	0.00	0.0652	11.27	495.9	392.04	0.0644	493.8	8.889	17.18	10.36	1.77
	30.90	34.41	73.51	0.00	0.0652	11.25	495.1	391.43	0.0643	493.0	8.874	17.15	10.34	1.77
	31.92	34.41	73.51	0.00	0.0651	11.25	495.0	391.36	0.0641	492.9	8.872	17.15	10.33	1.78
	32.90	34.41	73.51	0.00	0.0650	11.22	493.6	390.27	0.0641	490.5	8.829	17.06	10.26	1.77
	33.95	34.38	73.51	0.00	0.0650	11.23	494.0	390.52	0.0642	492.6	8.867	17.13	10.32	1.77
	34.91	34.35	73.48	0.00	0.0651	11.24	494.6	391.07	0.0645	494.9	8.908	17.22	10.39	1.77
	35.93	34.38	73.51	0.00	0.0651	11.25	494.9	391.23	0.0642	494.1	8.893	17.18	10.37	1.77
	36.93	34.44	73.46	0.00	0.0651	11.22	493.8	390.67	0.0641	490.1	8.822	17.06	10.25	1.78
	37.92	34.41	73.48	0.00	0.0650	11.23	494.2	390.81	0.0640	491.0	8.838	17.08	10.28	1.78
	38.92	34.43	73.51	0.00	0.0650	11.22	493.7	390.34	0.0640	489.0	8.802	17.01	10.22	1.77
	39.92	34.41	73.48	0.00	0.0650	11.23	494.0	390.65	0.0640	490.4	8.826	17.06	10.26	1.77
	40.92	34.43	73.48	0.00	0.0650	11.22	493.7	390.43	0.0638	488.3	8.789	16.99	10.19	1.77
	41.92	34.41	73.51	0.00	0.0648	11.18	492.1	389.01	0.0636	485.8	8.745	16.90	10.12	1.77
	42.92	34.44	73.51	-0.00	0.0650	11.22	493.6	390.29	0.0638	487.7	8.778	16.97	10.18	1.78
	43.91	34.41	73.48	0.00	0.0650	11.23	494.0	390.72	0.0638	488.2	8.787	16.99	10.19	1.78
	44.91	34.44	73.51	-0.00	0.0651	11.23	494.1	390.64	0.0639	488.7	8.796	17.00	10.21	1.77
	45.91	34.43	73.48	0.00	0.0651	11.25	494.9	391.42	0.0639	489.4	8.809	17.03	10.23	1.78
	47.00	34.44	73.51	-0.00	0.0652	11.24	494.8	391.19	0.0641	489.8	8.817	17.04	10.24	1.77
	47.94	34.40	73.48	-0.00	0.0648	11.23	494.1	390.72	0.0637	489.2	8.806	17.02	10.22	1.78
	48.92	34.44	73.51	0.00	0.0650	11.23	494.0	390.58	0.0639	489.0	8.802	17.01	10.22	1.78
	50.00	34.44	73.48	0.00	0.0648	11.18	491.9	389.05	0.0637	487.7	8.778	16.97	10.18	1.78
	50.92	34.44	73.51	0.00	0.0650	11.22	493.7	390.30	0.0640	489.8	8.817	17.04	10.24	1.78
	51.93	34.43	73.51	0.00	0.0650	11.19	492.5	389.39	0.0640	488.5	8.793	16.99	10.20	1.78
	52.93	34.44	73.48	0.00	0.0648	11.15	490.7	388.15	0.0637	485.7	8.743	16.90	10.12	1.78
	53.91	34.46	73.51	0.00	0.0649	11.21	493.0	389.85	0.0639	489.3	8.807	17.02	10.23	1.78
	54.91	34.40	73.48	0.00	0.0650	11.21	493.0	389.90	0.0640	489.2	8.806	17.02	10.22	1.78
	55.99	34.46	73.46	0.00	0.0649	11.21	493.1	390.14	0.0638	489.6	8.812	17.04	10.23	1.78
	56.94	34.46	73.48	-0.00	0.0649	11.20	492.9	389.90	0.0639	489.1	8.804	17.02	10.22	1.78
	57.92	34.43	73.51	-0.00	0.0650	11.21	493.3	389.98	0.0640	489.9	8.818	17.04	10.24	1.78
	58.94	34.47	73.48	-0.00	0.0650	11.22	493.5	390.35	0.0641	490.3	8.826	17.07	10.26	1.78
	59.98	34.48	73.51	0.00	0.0650	11.21	493.3	390.10	0.0642	490.3	8.825	17.06	10.26	1.78
	60.93	34.46	73.51	-0.00	0.0651	11.23	494.2	390.73	0.0643	492.5	8.865	17.13	10.32	1.78
	61.92	34.46	73.48	-0.00	0.0650	11.22	493.6	390.40	0.0642	492.5	8.864	17.14	10.32	1.78
	62.93	34.49	73.51	-0.00	0.0650	11.23	494.0	390.69	0.0640	492.3	8.862	17.13	10.32	1.78
	63.93	34.48	73.51	0.00	0.0650	11.22	493.8	390.46	0.0641	491.5	8.847	17.10	10.30	1.78
	64.94	34.47	73.51	0.00	0.0650	11.22	493.9	390.53	0.0640	491.4	8.846	17.10	10.29	1.78
	65.93	34.48	73.43	0.00	0.0650	11.20	493.0	390.23	0.0640	489.2	8.806	17.04	10.22	1.78
	66.92	34.48	73.51	0.00	0.0650	11.22	493.8	390.46	0.0639	489.6	8.813	17.04	10.24	1.78
	67.92	34.50	73.51	0.00	0.0647	11.16	491.2	388.43	0.0636	486.2	8.751	16.92	10.13	1.78
	68.92	34.48	73.51	0.00	0.0647	11.16	491.0	388.29	0.0635	485.5	8.739	16.89	10.11	1.78
	69.92	34.48	73.48	0.00	0.0648	11.18	491.9	389.14	0.0637	487.9	8.781	16.98	10.18	1.78
	70.92	34.47	73.48	0.00	0.0649	11.21	493.4	390.27	0.0640	490.6	8.830	17.07	10.27	1.78
	71.92	34.49	73.48	0.00	0.0650	11.23	493.9	390.74	0.0640	491.8	8.853	17.12	10.31	1.78
	72.99	34.46	73.51	0.00	0.0650	11.23	493.9	390.55	0.0641	491.9	8.855	17.11	10.31	1.78
	73.91	34.50	73.48	0.00	0.0651	11.21	493.1	390.06	0.0642	490.7	8.832	17.08	10.27	1.78
	74.93	34.52	73.48	0.00	0.0650	11.22	493.8	390.69	0.0642	491.8	8.852	17.12	10.31	1.78
	75.91	34.42	73.51	0.00	0.0651	11.24	494.6	390.99	0.0644	493.2	8.877	17.16	10.34	1.78
	76.99	34.50	73.48	0.00	0.0648	11.23	493.9	390.74	0.0638	491.6	8.850	17.11	10.30	1.78
	77.91	34.49	73.51	0.00	0.0650	11.23	494.2	390.84	0.0642	492.3	8.861	17.13	10.32	1.78
	78.92	34.48	73.51	-0.00	0.0650	11.21	493.1	389.96	0.0642	490.7	8.833	17.07	10.27	1.78
	79.90	34.50	73.48	0.00	0.0651	11.24	494.6	391.25	0.0642	493.4	8.882	17.17	10.35	1.78
	80.92	34.46	73.51	0.00	0.0650	11.22	493.5	390.22	0.0641	491.5	8.848	17.10	10.30	1.78
	81.92	34.51	73.51	0.00	0.0649	11.21	493.1	389.96	0.0641	491.5	8.847	17.10	10.30	1.78
	83.01	34.50	73.51	-0.00	0.0648	11.18	491.7	388.85	0.0638	488.5	8.793	17.00	10.20	1.78
	83.93	34.50	73.51	-0.00	0.0649	11.17	491.4	388.61	0.0640	488.1	8.786	16.98	10.19	1.78
	84.93	34.50	73.48	0.00	0.0648	11.16	490.9	388.34	0.0638	487.2	8.770	16.96	10.17	1.78
	85.93	34.50	73.48	-0.00	0.0649	11.21	493.2	390.14	0.0642	491.6	8.848	17.11	10.30	1.78
	86.92	34.50	73.51	0.00	0.0650	11.20	492.9	389.82	0.0642	491.3	8.843	17.09	10.29	1.78
	87.91	34.49	73.51	0.00	0.0650	11.21	493.4	390.18	0.0642	492.0	8.856	17.12	10.31	1.78
	88.94	34.49	73.48	0.00	0.0650	11.22	493.7	390.58	0.0642	492.7	8.868	17.15	10.33	1.79
	89.92	34.52	73.51	-0.00	0.0651	11.23	494.0	390.73	0.0643	494.2	8.896	17.20	10.38	1.79
	90.92	34.52	73.48	0.00	0.0651	11.23	494.3	391.03	0.0644	494.2	8.896	17.20	10.38	1.78
	91.92	34.51	73.48	0.00	0.0651	11.24	494.7	391.37	0.0645	495.4	8.916	17.24	10.41	1.78
	92.93	34.51	73.51	-0.00	0.0649	11.24	494.4	391.01	0.0642	494.9	8.909	17.22	10.40	1.78
	93.93	34.52	73.48	-0.00	0.0652	11.25	495.0	391.64	0.0646	496.3	8.933	17.28	10.44	1.78
	94.93	34.50	73.48	0.00	0.0651	11.21	493.4	390.29	0.0644	493.5	8.883	17.18	10.36	1.79
	95.92	34.51	73.51	0.00	0.0651	11.26	495.3	391.71	0.0646	496.8	8.942	17.29	10.46	1.79
	96.94	34.47	73.46	-0.00	0.0651	11.23	494.0	390.93	0.0646	495.3	8.915	17.24	10.41	1.78
	97.92	34.49	73.51	-0.00	0.0648	11.15	490.6	387.97	0.0640	488.4	8.792	17.00	10.20	1.79
	98.94	34.51	73.46	-0.00	0.0651	11.23	494.3	391.20	0.0645	494.8	8.907	17.23	10.40	1.78
	99.92	34.49	73.51	0.00	0.0650	11.22	493.7	390.44	0.0644	493.6	8.885	17.17	10.36	1.79
	100.92	34.45	73.48	0.00	0.0651	11.23	494.2	390.87	0.0644	494.7	8.905	17.22	10.39	1.79
	101.92	34.49	73.48	0.00	0.0648	11.23	494.1	390.86	0.0639	495.4	8.918	17.24	10.41	1.79
	102.91	34.51	73.48	0.00	0.0650	11.25	494.9	391.49	0.0644	496.8	8.943	17.29	10.46	1.79
	103.91	34.54	73.48	0.00	0.0648	11.19	492.2	389.41	0.0642	492.3	8.862	17.14	10.32	1.79
	104.93	34.51	73.51	0.00	0.0648	11.22	493.6	390.33	0.0643	494.9	8.908	17.22	10.40	1.79
	105.92	34.51	73.51	0.00	0.0650	11.22	493.9	390.56	0.0645	495.6	8.921	17.25	10.42	1.79
	106.94	34.53	73.51	-0.00	0.0648	11.20	493.0	389.92	0.0640	493.6	8.885	17.18	10.36	1.79
	107.94	34.54	73.51	-0.00	0.0646	11.14	489.9	387.51	0.0636	487.3	8.771	16.96	10.17	1.79
	108.94	34.51	73.48	-0.00	0.0646	11.12	489.4	387.21	0.0636	486.0	8.748	16.92	10.13	1.79
	109.93	34.53	73.48	-0.00	0.0646	11.13	489.7	387.46	0.0637	485.9	8.747	16.92	10.13	1.79
	110.92	34.54	73.51	0.00	0.0650	11.19	492.5	389.53	0.0645	493.2	8.877	17.16	10.35	1.79
	111.93	34.53	73.48	-0.00	0.0647	11.15	490.5	388.08	0.0641	488.8	8.798	17.02	10.22	1.79
	112.93	34.54	73.48	-0.00	0.0647	11.13	489.8	387.53	0.0638	486.9	8.764	16.95	10.16	1.79
	113.91	34.53	73.48	0.00	0.0647	11.16	491.0	388.43	0.0638	488.8	8.799	17.02	10.22	1.79
	114.93	34.56	73.51	-0.00	0.0648	11.15	490.4	387.90	0.0640	488.6	8.795	17.00	10.21	1.79
	115.91	34.56	73.48	0.00	0.0646	11.18	491.9	389.21	0.0639	492.6	8.867	17.15	10.33	1.79
	116.92	34.56	73.48	0.00	0.0646	11.15	490.8	388.34	0.0639	489.6	8.812	17.04	10.24	1.79
	117.94	34.53	73.48	-0.00	0.0649	11.20	493.0	390.01	0.0644	494.6	8.903	17.22	10.39	1.79
	118.92	34.57	73.51	0.00	0.0649	11.20	492.7	389.73	0.0644	494.2	8.896	17.20	10.38	1.79
	119.92	34.56	73.51	0.00	0.0649	11.18	491.8	389.01	0.0644	492.2	8.860	17.13	10.32	1.79
	120.95	34.53	73.51	-0.00	0.0649	11.18	491.9	389.08	0.0643	492.6	8.866	17.14	10.33	1.79
	121.93	34.56	73.51	-0.00	0.0646	11.15	490.5	387.98	0.0638	489.3	8.808	17.03	10.23	1.79
