Jul 23 2015 at 9:59:57
Frequency: 1.00Hz.
CO2
Zero:  Value:0.95  Date:18 Mar 2005	 at 07:22:33	
Span:  Value:1.00  Date:18 Mar 2005	 at 07:25:09	
H2O
Zero:  Value:0.71  Date:18 Mar 2005	 at 07:52:31	
Span:  Value:0.99  Date:18 Mar 2005	 at 11:44:01	
	Relative Time	Temperature	Pressure	Aux Input	CO2 Absorptance	CO2 mmol/m3	CO2 mg/m3	CO2 umol/mol	H2O Absorptance	H2O mmol/m3	H2O g/m3	H2O mmol/mol	H2O(°C)	Cooler Voltage
	0.59	27.82	73.72	-0.00	0.0684	11.98	527.2	406.70	0.0761	629.4	11.330	21.36	13.72	1.67
	1.58	27.81	73.72	-0.00	0.0685	12.00	528.2	407.43	0.0759	625.2	11.253	21.22	13.61	1.67
	2.59	27.83	73.72	0.00	0.0685	11.98	526.9	406.49	0.0756	625.2	11.254	21.22	13.61	1.67
	3.59	27.85	73.72	0.00	0.0685	11.99	527.5	407.01	0.0756	623.4	11.222	21.16	13.57	1.67
	4.60	27.89	73.74	-0.00	0.0684	11.98	527.0	406.52	0.0759	627.0	11.285	21.28	13.66	1.67
	5.60	27.88	73.74	-0.00	0.0684	11.97	526.7	406.25	0.0759	626.7	11.280	21.27	13.65	1.67
	6.60	27.87	73.77	-0.00	0.0687	12.03	529.3	408.10	0.0751	616.9	11.104	20.93	13.41	1.67
	7.58	27.87	73.75	0.00	0.0688	12.04	529.6	408.51	0.0746	618.1	11.125	20.97	13.44	1.67
	8.60	27.88	73.74	-0.00	0.0687	12.03	529.3	408.26	0.0747	613.8	11.049	20.83	13.33	1.67
	9.58	27.85	73.74	0.00	0.0687	12.05	530.1	408.82	0.0745	610.3	10.986	20.71	13.24	1.67
	10.59	27.87	73.72	-0.00	0.0688	12.06	530.6	409.40	0.0738	604.4	10.880	20.52	13.10	1.67
	11.57	27.85	73.72	0.00	0.0691	12.11	533.0	411.19	0.0734	597.1	10.747	20.27	12.91	1.67
	12.67	27.85	73.74	-0.00	0.0692	12.14	534.2	411.97	0.0732	594.4	10.700	20.17	12.84	1.67
	13.57	27.87	73.72	0.00	0.0694	12.19	536.2	413.69	0.0725	586.6	10.559	19.92	12.64	1.67
	14.59	27.87	73.69	0.00	0.0693	12.18	536.0	413.73	0.0725	586.6	10.558	19.92	12.64	1.67
	15.59	27.87	73.75	-0.00	0.0693	12.19	536.3	413.67	0.0725	586.1	10.550	19.89	12.63	1.67
	16.58	27.87	73.72	0.00	0.0694	12.19	536.4	413.87	0.0724	585.8	10.544	19.89	12.62	1.67
	17.58	27.89	73.74	-0.00	0.0694	12.20	536.6	413.92	0.0725	585.2	10.534	19.86	12.60	1.67
	18.58	27.87	73.72	0.00	0.0693	12.18	536.1	413.63	0.0725	585.8	10.545	19.89	12.62	1.67
	19.58	27.87	73.72	0.00	0.0694	12.19	536.2	413.72	0.0725	586.7	10.560	19.92	12.64	1.67
	20.59	27.86	73.72	0.00	0.0693	12.18	536.0	413.54	0.0726	586.9	10.565	19.92	12.65	1.67
	21.57	27.88	73.77	0.00	0.0692	12.15	534.8	412.36	0.0727	588.0	10.584	19.95	12.68	1.67
	22.59	27.85	73.72	-0.00	0.0692	12.16	535.2	412.89	0.0724	585.6	10.541	19.88	12.61	1.67
	23.59	27.82	73.77	-0.00	0.0693	12.17	535.6	412.91	0.0721	582.4	10.482	19.75	12.53	1.67
	24.59	27.87	73.75	0.00	0.0694	12.19	536.5	413.83	0.0716	576.1	10.370	19.55	12.37	1.67
	25.58	27.85	73.74	-0.00	0.0694	12.20	536.9	414.06	0.0715	574.2	10.335	19.48	12.31	1.67
	26.58	27.85	73.74	-0.00	0.0694	12.20	537.0	414.16	0.0715	574.5	10.342	19.50	12.32	1.67
	27.58	27.86	73.74	-0.00	0.0695	12.22	537.7	414.74	0.0711	570.4	10.267	19.36	12.21	1.67
	28.58	27.85	73.72	0.00	0.0696	12.25	539.0	415.85	0.0707	565.2	10.174	19.19	12.07	1.67
	29.58	27.87	73.74	-0.00	0.0695	12.23	538.2	415.10	0.0707	564.6	10.164	19.16	12.06	1.67
	30.59	27.89	73.77	-0.00	0.0695	12.22	537.8	414.72	0.0707	565.0	10.171	19.17	12.07	1.67
	31.57	27.85	73.74	-0.00	0.0696	12.25	538.9	415.64	0.0704	562.3	10.121	19.08	11.99	1.67
	32.57	27.85	73.75	0.00	0.0697	12.26	539.3	415.95	0.0702	559.8	10.076	19.00	11.93	1.67
	33.59	27.87	73.72	0.00	0.0696	12.25	539.0	415.85	0.0704	561.2	10.101	19.05	11.97	1.67
	34.59	27.87	73.74	0.00	0.0695	12.24	538.5	415.33	0.0702	560.0	10.080	19.00	11.93	1.67
	35.60	27.86	73.77	-0.00	0.0694	12.21	537.2	414.19	0.0702	559.1	10.063	18.97	11.91	1.67
	36.60	27.87	73.72	-0.00	0.0694	12.21	537.0	414.36	0.0703	560.3	10.086	19.02	11.94	1.67
	37.60	27.87	73.74	-0.00	0.0693	12.19	536.2	413.58	0.0706	563.4	10.141	19.12	12.02	1.67
	38.59	27.87	73.74	-0.00	0.0693	12.18	535.7	413.21	0.0708	566.4	10.195	19.22	12.11	1.67
	39.59	27.87	73.74	-0.00	0.0694	12.19	536.4	413.69	0.0707	565.7	10.182	19.20	12.09	1.67
	40.59	27.87	73.77	-0.00	0.0693	12.18	535.9	413.20	0.0706	564.0	10.152	19.13	12.04	1.67
	41.57	27.85	73.72	0.00	0.0692	12.16	535.1	412.83	0.0707	563.7	10.147	19.14	12.03	1.67
	42.59	27.87	73.75	0.00	0.0692	12.14	534.2	412.02	0.0705	563.8	10.148	19.13	12.04	1.67
	43.59	27.89	73.74	-0.00	0.0694	12.18	535.9	413.36	0.0702	560.9	10.096	19.04	11.96	1.67
	44.59	27.87	73.74	0.00	0.0694	12.21	537.1	414.26	0.0703	560.0	10.079	19.00	11.93	1.67
	45.58	27.87	73.74	-0.00	0.0693	12.17	535.6	413.07	0.0704	561.5	10.108	19.06	11.98	1.67
	46.58	27.89	73.75	0.00	0.0693	12.18	536.0	413.46	0.0705	562.3	10.121	19.08	12.00	1.67
	47.58	27.87	73.74	-0.00	0.0694	12.20	536.6	413.89	0.0704	561.9	10.114	19.07	11.98	1.67
	48.58	27.91	73.72	0.00	0.0694	12.21	537.1	414.44	0.0702	559.5	10.070	19.00	11.92	1.67
	49.58	27.89	73.75	0.00	0.0693	12.17	535.5	413.03	0.0701	559.3	10.067	18.98	11.91	1.67
	50.59	27.87	73.77	-0.00	0.0694	12.20	536.7	413.79	0.0701	557.7	10.039	18.92	11.87	1.67
	51.59	27.91	73.77	-0.00	0.0693	12.18	536.0	413.29	0.0700	557.0	10.026	18.90	11.85	1.67
	52.59	27.89	73.75	-0.00	0.0693	12.19	536.2	413.56	0.0700	557.2	10.029	18.91	11.86	1.67
	53.59	27.89	73.74	0.00	0.0693	12.17	535.6	413.12	0.0701	557.4	10.033	18.92	11.86	1.67
	54.59	27.93	73.74	0.00	0.0693	12.17	535.4	413.06	0.0701	558.5	10.053	18.96	11.90	1.67
	55.58	27.93	73.74	-0.00	0.0692	12.16	535.0	412.69	0.0700	557.4	10.033	18.92	11.87	1.67
	56.58	27.95	73.72	-0.00	0.0691	12.14	534.2	412.30	0.0701	558.4	10.050	18.96	11.89	1.67
	57.64	27.93	73.72	0.00	0.0691	12.14	534.2	412.24	0.0700	556.9	10.024	18.91	11.85	1.67
	58.59	27.97	73.74	-0.00	0.0691	12.13	533.8	411.89	0.0699	555.3	9.996	18.85	11.81	1.67
	59.58	27.97	73.72	0.00	0.0691	12.13	533.8	411.98	0.0699	554.9	9.989	18.85	11.80	1.67
	60.58	27.95	73.74	0.00	0.0692	12.15	534.6	412.44	0.0699	555.5	9.999	18.86	11.82	1.67
	61.57	27.99	73.74	0.00	0.0691	12.14	534.0	412.01	0.0697	553.9	9.969	18.80	11.77	1.67
	62.60	27.96	73.74	-0.00	0.0691	12.12	533.5	411.58	0.0697	553.5	9.963	18.79	11.76	1.67
	63.59	27.96	73.80	0.00	0.0691	12.12	533.4	411.21	0.0698	553.9	9.970	18.79	11.77	1.67
	64.60	27.99	73.77	-0.00	0.0690	12.11	533.0	411.13	0.0699	555.6	10.001	18.86	11.82	1.67
	65.58	27.98	73.74	0.00	0.0691	12.13	533.5	411.67	0.0699	555.3	9.996	18.85	11.81	1.67
	66.66	28.00	73.77	0.00	0.0691	12.13	533.6	411.59	0.0698	554.0	9.972	18.80	11.78	1.67
	67.58	28.00	73.74	0.00	0.0690	12.11	532.8	411.11	0.0697	553.7	9.967	18.80	11.77	1.67
	68.59	27.98	73.72	0.00	0.0691	12.13	533.5	411.82	0.0700	556.5	10.016	18.90	11.84	1.67
	69.58	28.01	73.72	0.00	0.0690	12.11	532.9	411.39	0.0697	553.8	9.968	18.81	11.77	1.68
	70.59	27.98	73.72	0.00	0.0690	12.11	532.9	411.30	0.0696	552.0	9.936	18.75	11.72	1.67
	71.59	27.98	73.74	0.00	0.0690	12.11	532.8	411.14	0.0696	552.4	9.942	18.75	11.73	1.67
	72.59	28.01	73.72	0.00	0.0689	12.10	532.5	411.03	0.0696	552.8	9.950	18.77	11.74	1.67
	73.59	27.96	73.74	-0.00	0.0689	12.08	531.6	410.13	0.0695	550.2	9.904	18.68	11.67	1.67
	74.60	27.97	73.72	0.00	0.0690	12.08	531.7	410.38	0.0693	548.1	9.866	18.61	11.61	1.67
	75.58	27.98	73.75	-0.00	0.0691	12.12	533.2	411.43	0.0694	549.2	9.885	18.64	11.64	1.67
	76.60	27.99	73.72	-0.00	0.0690	12.11	533.0	411.42	0.0694	549.3	9.888	18.66	11.65	1.67
	77.58	28.00	73.74	-0.00	0.0691	12.12	533.2	411.40	0.0694	549.6	9.893	18.66	11.66	1.68
	78.59	28.00	73.75	-0.00	0.0690	12.10	532.3	410.77	0.0692	547.5	9.854	18.59	11.60	1.68
	79.65	28.00	73.75	-0.00	0.0689	12.09	532.0	410.51	0.0693	549.2	9.885	18.64	11.64	1.67
	80.59	28.00	73.75	0.00	0.0690	12.11	532.7	411.03	0.0693	548.9	9.880	18.64	11.64	1.68
	81.59	28.00	73.80	-0.00	0.0690	12.10	532.3	410.43	0.0693	548.5	9.872	18.61	11.62	1.68
	82.59	28.00	73.75	0.00	0.0689	12.09	532.0	410.49	0.0692	547.4	9.852	18.58	11.59	1.68
	83.57	28.00	73.77	0.00	0.0690	12.10	532.5	410.72	0.0693	548.7	9.877	18.62	11.63	1.68
	84.58	28.03	73.74	-0.00	0.0690	12.11	532.6	411.03	0.0694	550.0	9.900	18.68	11.67	1.68
	85.57	28.00	73.72	0.00	0.0690	12.11	532.7	411.22	0.0694	549.7	9.895	18.67	11.66	1.68
	86.58	28.02	73.77	0.00	0.0690	12.11	532.8	410.98	0.0693	548.3	9.869	18.61	11.62	1.68
	87.58	28.02	73.74	-0.00	0.0689	12.10	532.3	410.76	0.0691	547.3	9.851	18.58	11.59	1.68
	88.58	28.02	73.74	0.00	0.0689	12.09	531.8	410.41	0.0691	547.0	9.846	18.57	11.59	1.68
	89.58	28.02	73.74	-0.00	0.0689	12.08	531.7	410.32	0.0691	546.5	9.838	18.56	11.57	1.68
	90.57	28.03	73.74	0.00	0.0690	12.10	532.3	410.77	0.0692	546.7	9.841	18.56	11.58	1.68
	91.57	27.98	73.74	-0.00	0.0690	12.10	532.3	410.73	0.0691	546.8	9.842	18.56	11.58	1.68
	92.57	28.02	73.72	0.00	0.0689	12.09	531.8	410.50	0.0691	545.6	9.822	18.53	11.55	1.68
	93.57	28.02	73.72	-0.00	0.0689	12.09	531.9	410.57	0.0691	545.8	9.824	18.54	11.55	1.68
	94.57	28.02	73.74	0.00	0.0689	12.08	531.6	410.24	0.0690	545.1	9.811	18.51	11.53	1.68
	95.60	28.02	73.75	-0.00	0.0688	12.07	531.1	409.85	0.0689	543.6	9.785	18.46	11.49	1.68
	96.58	28.02	73.74	0.00	0.0689	12.08	531.4	410.06	0.0689	544.4	9.799	18.48	11.51	1.68
	97.58	28.07	73.74	0.00	0.0689	12.08	531.3	410.08	0.0689	544.3	9.797	18.48	11.51	1.68
	98.59	28.02	73.72	-0.00	0.0689	12.09	532.0	410.71	0.0689	544.4	9.799	18.49	11.51	1.68
	99.58	28.02	73.72	0.00	0.0689	12.09	532.0	410.70	0.0690	544.2	9.796	18.49	11.51	1.68
	100.59	28.09	73.74	-0.00	0.0689	12.09	531.8	410.51	0.0689	544.6	9.803	18.50	11.52	1.68
	101.59	28.06	73.74	-0.00	0.0688	12.07	531.1	409.87	0.0688	543.8	9.788	18.46	11.50	1.68
	102.59	28.06	73.74	0.00	0.0688	12.07	531.1	409.91	0.0688	542.9	9.772	18.44	11.47	1.68
	103.58	28.01	73.72	-0.00	0.0688	12.06	530.6	409.59	0.0688	542.7	9.769	18.43	11.47	1.68
	104.60	28.00	73.72	-0.00	0.0688	12.06	530.8	409.72	0.0689	543.6	9.784	18.46	11.49	1.68
	105.64	28.04	73.72	0.00	0.0688	12.06	530.5	409.51	0.0689	543.5	9.783	18.46	11.49	1.68
	106.60	28.04	73.72	-0.00	0.0688	12.06	530.7	409.71	0.0687	542.5	9.765	18.43	11.46	1.68
	107.58	28.02	73.74	0.00	0.0688	12.06	530.8	409.60	0.0687	542.2	9.760	18.41	11.45	1.68
	108.59	28.03	73.74	-0.00	0.0688	12.05	530.4	409.29	0.0688	541.8	9.752	18.40	11.44	1.68
	109.59	28.09	73.72	-0.00	0.0688	12.07	530.9	409.96	0.0688	542.4	9.763	18.43	11.46	1.68
	110.57	28.04	73.72	0.00	0.0689	12.08	531.5	410.31	0.0688	542.5	9.766	18.43	11.46	1.68
	111.59	28.06	73.74	-0.00	0.0688	12.07	531.1	409.89	0.0686	541.0	9.737	18.37	11.42	1.68
	112.57	28.03	73.69	0.00	0.0688	12.07	531.1	410.17	0.0685	540.9	9.736	18.38	11.42	1.68
	113.58	28.04	73.72	-0.00	0.0688	12.07	530.9	409.86	0.0687	541.3	9.744	18.39	11.43	1.68
	114.58	28.09	73.74	0.00	0.0689	12.08	531.7	410.37	0.0688	543.7	9.787	18.47	11.50	1.68
	115.57	28.03	73.72	0.00	0.0688	12.07	531.3	410.12	0.0688	542.8	9.770	18.44	11.47	1.68
	116.58	28.06	73.72	0.00	0.0687	12.05	530.4	409.49	0.0686	540.9	9.737	18.38	11.42	1.68
	117.56	28.05	73.75	0.00	0.0687	12.04	529.7	408.80	0.0685	538.9	9.701	18.30	11.36	1.68
	118.59	28.06	73.74	-0.00	0.0687	12.05	530.0	409.06	0.0684	539.6	9.712	18.32	11.38	1.68
	119.64	28.08	73.72	0.00	0.0688	12.05	530.3	409.42	0.0685	539.6	9.713	18.33	11.38	1.68
	120.57	28.07	73.74	0.00	0.0689	12.08	531.6	410.31	0.0686	541.3	9.743	18.38	11.43	1.68
