Jul 23 2015 at 9:04:21
Frequency: 1.00Hz.
CO2
Zero:  Value:0.95  Date:18 Mar 2005	 at 07:22:33	
Span:  Value:1.00  Date:18 Mar 2005	 at 07:25:09	
H2O
Zero:  Value:0.71  Date:18 Mar 2005	 at 07:52:31	
Span:  Value:0.99  Date:18 Mar 2005	 at 11:44:01	
	Relative Time	Temperature	Pressure	Aux Input	CO2 Absorptance	CO2 mmol/m3	CO2 mg/m3	CO2 umol/mol	H2O Absorptance	H2O mmol/m3	H2O g/m3	H2O mmol/mol	H2O(°C)	Cooler Voltage
	0.00	17.33	73.72	-0.00	0.0701	12.37	544.1	405.09	0.0793	669.4	12.050	21.93	14.12	1.46
	0.98	17.31	73.69	0.00	0.0699	12.32	542.2	403.80	0.0808	687.4	12.373	22.52	14.53	1.46
	2.00	17.30	73.69	-0.00	0.0700	12.34	542.9	404.31	0.0811	691.5	12.448	22.66	14.62	1.46
	2.98	17.31	73.72	0.00	0.0701	12.36	543.7	404.78	0.0815	695.5	12.519	22.78	14.71	1.46
	3.99	17.28	73.67	-0.00	0.0700	12.34	542.8	404.34	0.0814	699.5	12.591	22.93	14.80	1.46
	4.99	17.31	73.72	-0.00	0.0700	12.34	543.1	404.34	0.0817	699.2	12.586	22.91	14.79	1.46
	5.99	17.33	73.67	0.00	0.0699	12.31	541.8	403.72	0.0818	699.4	12.589	22.93	14.80	1.46
	6.97	17.31	73.69	0.00	0.0699	12.28	540.2	402.36	0.0792	685.1	12.332	22.45	14.48	1.46
	7.99	17.31	73.72	0.00	0.0703	12.40	545.4	406.09	0.0740	615.9	11.086	20.17	12.84	1.46
	8.98	17.33	73.72	-0.00	0.0705	12.46	548.2	408.13	0.0723	584.8	10.526	19.16	12.05	1.46
	10.00	17.31	73.72	-0.00	0.0705	12.45	548.0	407.98	0.0729	589.9	10.618	19.32	12.18	1.46
	11.04	17.31	73.72	0.00	0.0705	12.43	547.0	407.28	0.0744	613.0	11.034	20.08	12.77	1.46
	11.98	17.31	73.72	0.00	0.0704	12.43	547.1	407.31	0.0760	623.6	11.225	20.43	13.03	1.46
	12.98	17.31	73.69	0.00	0.0704	12.43	546.8	407.23	0.0757	624.8	11.247	20.48	13.06	1.46
	13.99	17.31	73.72	-0.00	0.0705	12.44	547.5	407.65	0.0749	617.5	11.115	20.23	12.88	1.46
	14.99	17.31	73.72	0.00	0.0705	12.45	548.0	408.00	0.0736	602.3	10.842	19.73	12.50	1.47
	15.99	17.33	73.74	-0.00	0.0706	12.47	548.7	408.41	0.0735	598.7	10.777	19.61	12.41	1.46
	16.99	17.31	73.72	0.00	0.0705	12.46	548.2	408.14	0.0734	596.0	10.727	19.52	12.34	1.46
	18.06	17.31	73.69	0.00	0.0706	12.46	548.2	408.27	0.0738	598.4	10.771	19.61	12.40	1.46
	18.98	17.31	73.72	0.00	0.0705	12.44	547.5	407.63	0.0747	612.0	11.017	20.05	12.74	1.46
	19.98	17.33	73.72	-0.00	0.0705	12.45	547.7	407.79	0.0744	608.9	10.961	19.95	12.67	1.47
	21.00	17.33	73.74	-0.00	0.0703	12.41	546.1	406.46	0.0751	616.4	11.095	20.19	12.85	1.47
	21.98	17.31	73.74	0.00	0.0702	12.36	543.8	404.69	0.0744	624.0	11.232	20.43	13.04	1.46
	22.98	17.33	73.72	0.00	0.0704	12.41	546.2	406.70	0.0726	586.1	10.550	19.20	12.08	1.46
	23.99	17.33	73.72	-0.00	0.0703	12.40	545.5	406.12	0.0732	602.0	10.836	19.72	12.49	1.46
	24.99	17.31	73.72	0.00	0.0703	12.42	546.5	406.90	0.0742	593.7	10.686	19.45	12.28	1.46
	25.99	17.31	73.72	-0.00	0.0702	12.39	545.3	405.95	0.0723	583.4	10.500	19.11	12.01	1.47
	27.00	17.31	73.72	-0.00	0.0704	12.43	547.0	407.21	0.0728	589.0	10.602	19.30	12.16	1.47
	27.97	17.33	73.72	0.00	0.0704	12.42	546.7	407.02	0.0734	597.9	10.762	19.59	12.39	1.46
	28.98	17.33	73.72	0.00	0.0702	12.40	545.6	406.25	0.0731	593.9	10.690	19.46	12.28	1.47
	29.98	17.33	73.69	-0.00	0.0703	12.42	546.5	407.02	0.0738	599.7	10.795	19.65	12.43	1.47
	30.98	17.33	73.72	0.00	0.0704	12.41	546.0	406.49	0.0739	603.0	10.853	19.75	12.52	1.47
	31.98	17.33	73.72	0.00	0.0704	12.43	546.8	407.12	0.0739	603.3	10.860	19.77	12.53	1.47
	32.99	17.34	73.69	0.00	0.0703	12.42	546.7	407.20	0.0741	604.1	10.874	19.80	12.55	1.47
	33.99	17.33	73.72	-0.00	0.0704	12.43	546.7	407.06	0.0743	606.5	10.917	19.87	12.61	1.46
	34.98	17.34	73.72	0.00	0.0704	12.41	546.2	406.67	0.0746	610.8	10.995	20.01	12.71	1.47
	35.99	17.36	73.72	0.00	0.0703	12.42	546.3	406.81	0.0747	612.3	11.021	20.06	12.75	1.47
	36.97	17.36	73.72	0.00	0.0703	12.41	546.0	406.54	0.0747	612.1	11.019	20.06	12.75	1.47
	37.97	17.34	73.69	0.00	0.0703	12.42	546.4	407.01	0.0753	619.6	11.153	20.31	12.93	1.47
	39.00	17.33	73.72	0.00	0.0704	12.43	546.7	407.08	0.0758	626.2	11.272	20.52	13.09	1.47
	39.98	17.34	73.69	0.00	0.0705	12.44	547.3	407.62	0.0758	625.3	11.255	20.49	13.07	1.47
	41.00	17.34	73.69	0.00	0.0704	12.45	547.9	408.09	0.0754	621.9	11.195	20.38	12.99	1.47
	41.99	17.34	73.72	-0.00	0.0704	12.42	546.6	406.98	0.0762	631.5	11.367	20.69	13.22	1.47
	43.01	17.33	73.74	-0.00	0.0704	12.42	546.5	406.73	0.0760	629.2	11.325	20.61	13.17	1.47
	43.99	17.34	73.69	-0.00	0.0704	12.42	546.7	407.21	0.0759	626.3	11.273	20.53	13.10	1.47
	44.99	17.36	73.72	0.00	0.0704	12.41	546.1	406.62	0.0760	629.3	11.327	20.62	13.17	1.47
	45.99	17.36	73.69	0.00	0.0703	12.42	546.6	407.13	0.0759	628.2	11.308	20.59	13.14	1.47
	46.99	17.36	73.72	0.00	0.0703	12.42	546.6	407.01	0.0761	628.7	11.317	20.60	13.16	1.47
	47.98	17.38	73.72	0.00	0.0704	12.43	546.7	407.14	0.0763	631.0	11.357	20.67	13.21	1.47
	48.97	17.34	73.67	0.00	0.0705	12.45	547.8	408.15	0.0764	632.2	11.379	20.73	13.24	1.47
	49.98	17.38	73.72	0.00	0.0705	12.44	547.6	407.76	0.0763	631.9	11.373	20.70	13.23	1.47
	50.98	17.36	73.69	0.00	0.0705	12.45	547.9	408.13	0.0764	633.1	11.396	20.75	13.26	1.47
	51.99	17.36	73.69	0.00	0.0703	12.41	545.8	406.59	0.0763	630.9	11.355	20.68	13.21	1.47
	52.99	17.34	73.69	-0.00	0.0704	12.41	546.1	406.74	0.0764	631.6	11.369	20.70	13.23	1.47
	53.99	17.38	73.72	-0.00	0.0703	12.40	545.5	406.22	0.0766	634.8	11.426	20.80	13.30	1.47
	54.97	17.38	73.72	0.00	0.0702	12.38	544.5	405.51	0.0767	636.4	11.456	20.85	13.34	1.47
	55.97	17.38	73.74	0.00	0.0702	12.40	545.5	406.06	0.0768	638.1	11.487	20.90	13.39	1.47
	56.97	17.38	73.72	0.00	0.0702	12.39	545.1	405.92	0.0770	639.4	11.508	20.95	13.41	1.47
	57.98	17.39	73.69	0.00	0.0702	12.39	545.1	406.11	0.0770	640.6	11.531	21.00	13.45	1.47
	58.97	17.39	73.72	0.00	0.0702	12.38	544.7	405.61	0.0771	640.5	11.529	20.99	13.44	1.47
	59.98	17.39	73.72	-0.00	0.0700	12.34	543.2	404.50	0.0772	642.4	11.563	21.05	13.49	1.47
	60.97	17.39	73.69	0.00	0.0701	12.36	543.7	405.07	0.0769	640.0	11.521	20.98	13.43	1.47
	61.98	17.39	73.72	0.00	0.0701	12.36	543.9	405.02	0.0768	637.2	11.469	20.88	13.36	1.47
	62.98	17.39	73.69	0.00	0.0700	12.34	542.9	404.43	0.0773	644.3	11.598	21.12	13.53	1.47
	63.98	17.39	73.74	0.00	0.0701	12.35	543.4	404.53	0.0775	645.3	11.615	21.14	13.56	1.47
	64.96	17.41	73.69	0.00	0.0699	12.32	541.9	403.75	0.0771	642.6	11.567	21.07	13.49	1.47
	65.99	17.39	73.69	0.00	0.0700	12.32	542.3	403.98	0.0772	641.2	11.541	21.02	13.46	1.47
	66.99	17.39	73.72	0.00	0.0699	12.32	542.1	403.74	0.0769	639.7	11.515	20.96	13.42	1.47
	68.00	17.41	73.75	-0.00	0.0699	12.32	542.3	403.73	0.0771	638.8	11.498	20.93	13.40	1.47
	69.08	17.39	73.72	-0.00	0.0701	12.36	543.9	405.04	0.0765	633.8	11.408	20.77	13.28	1.47
	70.00	17.41	73.72	-0.00	0.0699	12.31	541.7	403.47	0.0774	643.1	11.577	21.08	13.51	1.47
	71.00	17.43	73.69	-0.00	0.0698	12.30	541.0	403.10	0.0774	646.2	11.631	21.18	13.58	1.47
	71.99	17.43	73.69	-0.00	0.0697	12.25	538.9	401.55	0.0777	649.1	11.683	21.28	13.65	1.47
	72.99	17.43	73.72	0.00	0.0698	12.27	540.0	402.17	0.0773	642.5	11.565	21.06	13.49	1.47
	73.99	17.44	73.72	-0.00	0.0696	12.24	538.8	401.28	0.0776	647.9	11.662	21.23	13.62	1.47
	74.97	17.44	73.69	0.00	0.0698	12.27	539.9	402.26	0.0776	648.2	11.667	21.25	13.63	1.47
	75.99	17.43	73.72	0.00	0.0699	12.29	540.9	402.86	0.0774	646.0	11.628	21.17	13.58	1.47
	76.97	17.44	73.72	0.00	0.0698	12.30	541.1	403.01	0.0772	641.9	11.555	21.04	13.48	1.47
	77.98	17.43	73.72	0.00	0.0695	12.21	537.2	400.09	0.0784	654.9	11.787	21.46	13.78	1.47
	78.98	17.43	73.72	-0.00	0.0692	12.15	534.4	398.04	0.0793	668.1	12.026	21.90	14.09	1.47
	79.98	17.44	73.74	0.00	0.0691	12.14	534.2	397.79	0.0782	654.2	11.775	21.43	13.77	1.47
	80.98	17.44	73.72	0.00	0.0693	12.17	535.3	398.74	0.0785	659.6	11.872	21.62	13.90	1.47
	81.99	17.44	73.74	-0.00	0.0696	12.24	538.6	401.05	0.0777	651.5	11.727	21.35	13.71	1.47
	82.98	17.44	73.72	0.00	0.0694	12.19	536.2	399.38	0.0778	649.1	11.684	21.27	13.65	1.47
	83.97	17.43	73.72	0.00	0.0694	12.19	536.2	399.36	0.0776	647.9	11.662	21.23	13.62	1.48
	84.97	17.44	73.72	0.00	0.0695	12.21	537.2	400.15	0.0776	648.4	11.671	21.25	13.63	1.47
	85.99	17.44	73.72	0.00	0.0695	12.23	538.1	400.83	0.0775	647.5	11.656	21.22	13.61	1.47
	86.97	17.44	73.72	0.00	0.0695	12.23	538.1	400.81	0.0776	644.4	11.600	21.12	13.54	1.47
	87.98	17.46	73.69	0.00	0.0692	12.17	535.4	398.91	0.0784	656.3	11.814	21.52	13.82	1.47
	88.97	17.46	73.69	0.00	0.0694	12.19	536.5	399.80	0.0779	655.4	11.797	21.49	13.80	1.48
	90.00	17.46	73.72	0.00	0.0695	12.21	537.4	400.29	0.0777	652.4	11.743	21.38	13.73	1.48
	91.00	17.46	73.72	-0.00	0.0693	12.25	538.8	401.33	0.0773	640.8	11.535	21.00	13.45	1.48
	92.01	17.48	73.69	-0.00	0.0695	12.21	537.2	400.34	0.0773	642.9	11.572	21.08	13.50	1.47
	92.98	17.46	73.72	0.00	0.0695	12.22	537.5	400.41	0.0778	647.4	11.653	21.22	13.61	1.47
	94.01	17.48	73.69	0.00	0.0693	12.17	535.6	399.15	0.0783	653.3	11.759	21.42	13.75	1.47
	94.99	17.49	73.69	0.00	0.0694	12.19	536.2	399.58	0.0781	655.5	11.800	21.50	13.80	1.48
	95.99	17.44	73.72	0.00	0.0698	12.28	540.2	402.34	0.0765	636.2	11.452	20.85	13.34	1.48
	96.98	17.48	73.72	0.00	0.0695	12.26	539.2	401.68	0.0774	642.4	11.563	21.05	13.49	1.48
	97.98	17.49	73.72	0.00	0.0692	12.15	534.7	398.37	0.0780	651.8	11.732	21.36	13.72	1.48
	98.98	17.49	73.72	0.00	0.0694	12.18	535.8	399.14	0.0777	648.1	11.666	21.24	13.63	1.47
	100.00	17.47	73.69	-0.00	0.0692	12.14	534.1	398.00	0.0777	649.5	11.691	21.29	13.66	1.47
	100.98	17.49	73.72	0.00	0.0693	12.17	535.5	398.96	0.0776	647.0	11.646	21.21	13.60	1.48
	101.99	17.49	73.72	0.00	0.0691	12.14	534.2	397.98	0.0781	652.3	11.741	21.38	13.73	1.48
	102.99	17.49	73.72	-0.00	0.0691	12.11	532.8	396.90	0.0787	659.3	11.868	21.61	13.89	1.48
	103.99	17.52	73.72	0.00	0.0690	12.11	533.0	397.13	0.0783	656.6	11.819	21.53	13.83	1.48
	104.99	17.49	73.72	-0.00	0.0689	12.10	532.3	396.52	0.0789	662.9	11.932	21.73	13.98	1.48
	105.99	17.51	73.72	0.00	0.0692	12.15	534.7	398.38	0.0781	653.1	11.757	21.41	13.75	1.48
	106.98	17.49	73.67	0.00	0.0693	12.17	535.7	399.35	0.0780	650.9	11.717	21.35	13.70	1.48
	108.00	17.51	73.72	-0.00	0.0692	12.14	534.0	397.87	0.0784	658.8	11.858	21.59	13.88	1.48
	108.98	17.51	73.72	0.00	0.0691	12.16	534.9	398.52	0.0783	655.4	11.798	21.49	13.80	1.48
	109.98	17.49	73.72	0.00	0.0692	12.13	533.9	397.76	0.0785	658.9	11.860	21.60	13.88	1.48
	110.98	17.51	73.72	-0.00	0.0691	12.13	533.5	397.50	0.0790	664.4	11.959	21.78	14.01	1.48
	111.99	17.51	73.74	-0.00	0.0690	12.12	533.1	397.06	0.0792	667.2	12.009	21.86	14.08	1.48
	112.97	17.51	73.72	0.00	0.0689	12.09	531.8	396.19	0.0791	667.4	12.012	21.88	14.08	1.48
	113.99	17.51	73.72	0.00	0.0688	12.03	529.4	394.41	0.0793	673.4	12.121	22.07	14.22	1.48
	114.97	17.52	73.72	0.00	0.0689	12.09	531.7	396.18	0.0790	665.9	11.987	21.83	14.05	1.48
	115.99	17.52	73.72	0.00	0.0689	12.09	531.9	396.26	0.0790	664.6	11.962	21.79	14.02	1.48
	116.98	17.52	73.69	-0.00	0.0690	12.09	531.8	396.39	0.0788	664.0	11.952	21.78	14.00	1.48
	117.98	17.52	73.72	-0.00	0.0690	12.08	531.7	396.12	0.0789	664.1	11.953	21.77	14.01	1.48
