Jul 23 2015 at 9:18:56
Frequency: 1.00Hz.
CO2
Zero:  Value:0.95  Date:18 Mar 2005	 at 07:22:33	
Span:  Value:1.00  Date:18 Mar 2005	 at 07:25:09	
H2O
Zero:  Value:0.71  Date:18 Mar 2005	 at 07:52:31	
Span:  Value:0.99  Date:18 Mar 2005	 at 11:44:01	
	Relative Time	Temperature	Pressure	Aux Input	CO2 Absorptance	CO2 mmol/m3	CO2 mg/m3	CO2 umol/mol	H2O Absorptance	H2O mmol/m3	H2O g/m3	H2O mmol/mol	H2O(°C)	Cooler Voltage
	0.70	19.90	73.72	0.00	0.0673	11.74	516.4	387.90	0.0733	597.9	10.763	19.76	12.52	1.56
	1.73	19.93	73.69	-0.00	0.0672	11.68	514.1	386.37	0.0735	601.3	10.823	19.88	12.61	1.57
	2.70	19.91	73.69	0.00	0.0672	11.69	514.4	386.51	0.0738	602.4	10.844	19.92	12.64	1.57
	3.71	19.91	73.72	0.00	0.0672	11.69	514.2	386.27	0.0724	583.4	10.502	19.28	12.15	1.57
	4.71	19.91	73.72	-0.00	0.0673	11.70	514.8	386.71	0.0732	594.8	10.706	19.66	12.44	1.56
	5.74	19.91	73.72	-0.00	0.0672	11.71	515.0	386.88	0.0730	593.3	10.680	19.61	12.40	1.56
	6.72	19.93	73.75	0.00	0.0672	11.69	514.5	386.36	0.0727	588.7	10.596	19.45	12.29	1.56
	7.74	19.93	73.69	-0.00	0.0671	11.69	514.3	386.45	0.0732	593.5	10.683	19.62	12.41	1.57
	8.72	19.93	73.72	0.00	0.0671	11.67	513.6	385.85	0.0726	589.1	10.604	19.47	12.30	1.57
	9.72	19.93	73.72	0.00	0.0671	11.67	513.6	385.82	0.0729	590.5	10.629	19.52	12.33	1.57
	10.72	19.95	73.72	0.00	0.0670	11.66	513.1	385.44	0.0731	594.8	10.707	19.66	12.44	1.57
	11.73	19.93	73.69	-0.00	0.0670	11.65	512.6	385.19	0.0736	597.6	10.757	19.76	12.52	1.56
	12.73	19.96	73.72	-0.00	0.0670	11.66	513.0	385.43	0.0740	602.2	10.839	19.91	12.63	1.56
	13.73	19.98	73.74	0.00	0.0669	11.64	512.1	384.65	0.0739	602.2	10.840	19.90	12.64	1.57
	14.71	19.96	73.69	0.00	0.0670	11.65	512.5	385.21	0.0743	606.5	10.917	20.06	12.74	1.57
	15.72	19.98	73.69	0.00	0.0671	11.67	513.7	386.08	0.0738	602.9	10.853	19.94	12.65	1.57
	16.71	19.98	73.72	0.00	0.0671	11.69	514.2	386.33	0.0734	596.6	10.740	19.72	12.49	1.56
	17.72	19.98	73.69	0.00	0.0671	11.69	514.2	386.50	0.0736	598.3	10.770	19.79	12.54	1.56
	18.72	19.98	73.69	-0.00	0.0671	11.68	514.1	386.38	0.0740	602.9	10.853	19.94	12.65	1.57
	19.72	19.98	73.72	0.00	0.0671	11.67	513.3	385.69	0.0742	606.1	10.909	20.04	12.73	1.57
	20.72	20.00	73.69	-0.00	0.0668	11.62	511.2	384.25	0.0746	610.5	10.990	20.19	12.85	1.57
	21.73	20.00	73.72	-0.00	0.0669	11.63	511.5	384.36	0.0746	611.7	11.011	20.22	12.88	1.57
	22.71	20.00	73.72	0.00	0.0669	11.64	511.9	384.67	0.0746	610.8	10.995	20.19	12.85	1.57
	23.71	19.98	73.72	0.00	0.0669	11.63	511.8	384.56	0.0747	612.3	11.021	20.24	12.89	1.57
	24.73	20.01	73.74	-0.00	0.0667	11.57	509.2	382.48	0.0750	615.6	11.080	20.35	12.97	1.57
	25.71	20.01	73.74	0.00	0.0668	11.59	510.1	383.14	0.0750	616.7	11.101	20.38	13.00	1.57
	26.71	20.00	73.72	0.00	0.0667	11.59	509.8	383.07	0.0752	617.2	11.109	20.40	13.01	1.57
	27.72	20.03	73.74	0.00	0.0667	11.58	509.6	382.82	0.0752	619.4	11.149	20.47	13.07	1.57
	28.70	20.01	73.69	0.00	0.0666	11.58	509.3	382.86	0.0757	626.5	11.277	20.72	13.24	1.57
	29.72	20.03	73.72	0.00	0.0666	11.57	509.0	382.52	0.0756	622.9	11.212	20.60	13.15	1.57
	30.72	20.01	73.72	-0.00	0.0666	11.58	509.3	382.73	0.0752	621.2	11.181	20.54	13.11	1.57
	31.73	20.05	73.69	-0.00	0.0667	11.58	509.7	383.21	0.0758	623.9	11.230	20.64	13.18	1.57
	32.70	20.08	73.69	0.00	0.0667	11.59	509.9	383.35	0.0757	626.5	11.277	20.73	13.24	1.57
	33.73	20.10	73.72	-0.00	0.0667	11.58	509.6	383.01	0.0756	623.5	11.223	20.62	13.17	1.57
	34.80	20.08	73.72	0.00	0.0666	11.58	509.3	382.81	0.0756	623.6	11.226	20.62	13.17	1.57
	35.74	20.08	73.69	-0.00	0.0667	11.59	509.8	383.30	0.0757	617.5	11.115	20.43	13.02	1.57
	36.72	20.08	73.72	0.00	0.0666	11.57	509.0	382.60	0.0750	615.2	11.074	20.35	12.97	1.57
	37.72	20.08	73.69	-0.00	0.0667	11.56	508.8	382.56	0.0752	616.4	11.095	20.39	13.00	1.57
	38.81	20.08	73.72	-0.00	0.0667	11.58	509.3	382.83	0.0756	623.4	11.222	20.62	13.17	1.57
	39.72	20.10	73.69	0.00	0.0667	11.59	510.0	383.48	0.0757	624.7	11.244	20.67	13.20	1.57
	40.75	20.06	73.72	0.00	0.0667	11.60	510.6	383.72	0.0754	620.4	11.167	20.52	13.09	1.57
	41.73	20.11	73.72	-0.00	0.0666	11.55	508.1	381.96	0.0759	624.6	11.244	20.66	13.20	1.57
	42.74	20.11	73.69	-0.00	0.0666	11.56	508.7	382.53	0.0757	624.1	11.234	20.65	13.19	1.57
	43.73	20.10	73.74	0.00	0.0666	11.56	508.5	382.12	0.0759	625.5	11.259	20.68	13.22	1.57
	44.74	20.08	73.72	-0.00	0.0666	11.55	508.2	381.98	0.0761	629.5	11.331	20.82	13.32	1.57
	45.72	20.10	73.72	0.00	0.0665	11.55	508.1	381.92	0.0762	629.4	11.329	20.81	13.32	1.57
	46.72	20.11	73.72	0.00	0.0665	11.53	507.4	381.39	0.0760	628.9	11.320	20.80	13.31	1.57
	47.74	20.10	73.72	-0.00	0.0664	11.54	507.9	381.78	0.0759	628.1	11.306	20.77	13.29	1.57
	48.70	20.10	73.72	0.00	0.0665	11.54	507.5	381.50	0.0761	629.2	11.325	20.81	13.31	1.57
	49.72	20.11	73.72	0.00	0.0665	11.54	507.8	381.73	0.0761	629.5	11.330	20.82	13.32	1.57
	50.73	20.11	73.69	-0.00	0.0663	11.51	506.3	380.74	0.0766	639.2	11.505	21.15	13.55	1.57
	51.71	20.11	73.72	-0.00	0.0665	11.53	507.4	381.44	0.0765	635.2	11.433	21.01	13.46	1.57
	52.73	20.11	73.72	0.00	0.0665	11.53	507.5	381.50	0.0765	633.3	11.399	20.95	13.41	1.57
	53.71	20.11	73.69	0.00	0.0666	11.55	508.3	382.24	0.0765	634.2	11.416	20.98	13.44	1.57
	54.73	20.13	73.72	0.00	0.0665	11.53	507.5	381.53	0.0765	633.4	11.401	20.95	13.42	1.57
	55.71	20.13	73.69	0.00	0.0664	11.53	507.4	381.57	0.0765	633.8	11.409	20.97	13.43	1.57
	56.72	20.15	73.72	0.00	0.0663	11.51	506.5	380.77	0.0767	636.5	11.458	21.06	13.49	1.57
	57.78	20.15	73.72	0.00	0.0664	11.52	506.8	380.99	0.0771	641.3	11.543	21.21	13.61	1.57
	58.72	20.15	73.74	-0.00	0.0663	11.49	505.6	379.95	0.0774	643.2	11.577	21.27	13.65	1.57
	59.72	20.15	73.72	-0.00	0.0662	11.47	504.8	379.49	0.0773	643.8	11.587	21.29	13.67	1.57
	60.72	20.15	73.72	0.00	0.0661	11.45	504.0	378.88	0.0774	645.3	11.615	21.34	13.70	1.57
	61.71	20.17	73.72	0.00	0.0661	11.46	504.2	379.08	0.0774	645.5	11.618	21.35	13.71	1.57
	62.70	20.17	73.69	0.00	0.0663	11.49	505.5	380.15	0.0775	646.3	11.633	21.39	13.73	1.57
	63.71	20.17	73.72	0.00	0.0663	11.48	505.2	379.85	0.0776	647.8	11.660	21.43	13.76	1.57
	64.74	20.17	73.72	-0.00	0.0663	11.50	505.8	380.27	0.0770	642.0	11.556	21.24	13.62	1.57
	65.74	20.17	73.75	-0.00	0.0664	11.53	507.3	381.26	0.0770	640.0	11.519	21.16	13.58	1.57
	66.74	20.18	73.72	-0.00	0.0662	11.48	505.0	379.69	0.0780	653.3	11.759	21.61	13.89	1.57
	67.72	20.17	73.72	0.00	0.0661	11.45	504.0	378.91	0.0784	661.3	11.904	21.88	14.08	1.57
	68.73	20.18	73.74	0.00	0.0660	11.44	503.5	378.44	0.0791	662.2	11.919	21.90	14.10	1.57
	69.72	20.18	73.72	0.00	0.0660	11.42	502.6	377.87	0.0788	663.4	11.941	21.95	14.13	1.57
	70.73	20.18	73.69	0.00	0.0660	11.44	503.4	378.58	0.0785	660.7	11.893	21.86	14.07	1.57
	71.73	20.18	73.74	-0.00	0.0661	11.45	504.0	378.78	0.0781	655.8	11.804	21.69	13.95	1.57
	72.73	20.20	73.75	0.00	0.0662	11.48	505.2	379.72	0.0779	652.2	11.739	21.57	13.87	1.57
	73.73	20.20	73.72	0.00	0.0661	11.46	504.2	379.11	0.0781	654.1	11.773	21.64	13.91	1.57
	74.74	20.20	73.72	-0.00	0.0661	11.45	503.9	378.87	0.0782	657.4	11.834	21.75	13.99	1.57
	75.72	20.22	73.72	0.00	0.0661	11.44	503.2	378.41	0.0780	654.0	11.772	21.64	13.91	1.57
	76.74	20.22	73.69	-0.00	0.0660	11.43	503.0	378.36	0.0787	660.1	11.882	21.85	14.06	1.57
	77.73	20.20	73.72	-0.00	0.0658	11.42	502.6	377.90	0.0779	655.1	11.792	21.67	13.94	1.57
	78.72	20.22	73.72	0.00	0.0658	11.38	500.6	376.44	0.0780	653.8	11.768	21.63	13.91	1.57
	79.72	20.23	73.72	0.00	0.0658	11.40	501.4	377.06	0.0783	656.0	11.808	21.71	13.96	1.57
	80.79	20.23	73.72	0.00	0.0659	11.38	500.8	376.63	0.0790	666.4	11.995	22.05	14.20	1.57
	81.73	20.23	73.72	-0.00	0.0659	11.42	502.5	377.89	0.0784	657.4	11.833	21.75	13.99	1.57
	82.73	20.23	73.74	0.00	0.0660	11.43	502.8	378.00	0.0788	662.1	11.918	21.90	14.10	1.57
	83.72	20.25	73.72	-0.00	0.0656	11.34	499.0	375.27	0.0784	657.3	11.831	21.75	13.99	1.57
	84.80	20.25	73.72	-0.00	0.0659	11.41	502.1	377.62	0.0785	658.5	11.853	21.79	14.02	1.57
	85.71	20.25	73.72	0.00	0.0659	11.41	502.2	377.64	0.0789	660.9	11.896	21.87	14.07	1.57
	86.74	20.25	73.74	-0.00	0.0657	11.37	500.2	376.07	0.0796	672.7	12.109	22.25	14.35	1.57
	87.72	20.27	73.69	-0.00	0.0657	11.37	500.3	376.39	0.0793	670.3	12.065	22.19	14.29	1.57
	88.73	20.28	73.72	-0.00	0.0658	11.39	501.3	377.06	0.0793	668.4	12.031	22.12	14.25	1.57
	89.72	20.26	73.72	0.00	0.0658	11.39	501.2	376.93	0.0794	670.0	12.059	22.17	14.29	1.57
	90.71	20.27	73.72	0.00	0.0658	11.39	501.0	376.81	0.0795	672.0	12.096	22.24	14.33	1.57
	91.71	20.26	73.72	0.00	0.0658	11.38	500.7	376.59	0.0799	676.9	12.185	22.40	14.45	1.57
	92.73	20.28	73.72	-0.00	0.0658	11.38	500.7	376.58	0.0798	675.5	12.158	22.35	14.41	1.57
	93.72	20.28	73.72	-0.00	0.0655	11.33	498.4	374.86	0.0808	688.3	12.390	22.78	14.71	1.57
	94.72	20.30	73.72	0.00	0.0655	11.31	497.7	374.33	0.0809	690.2	12.424	22.84	14.75	1.57
	95.72	20.30	73.72	0.00	0.0655	11.34	498.9	375.22	0.0807	685.1	12.332	22.67	14.63	1.57
	96.80	20.30	73.69	0.00	0.0655	11.32	498.1	374.76	0.0807	687.9	12.383	22.77	14.70	1.57
	97.72	20.31	73.72	0.00	0.0656	11.34	498.9	375.25	0.0808	687.4	12.373	22.75	14.69	1.57
	98.73	20.35	73.72	-0.00	0.0657	11.36	499.9	376.10	0.0808	688.2	12.388	22.78	14.71	1.57
	99.73	20.33	73.74	-0.00	0.0658	11.38	500.5	376.38	0.0806	685.5	12.339	22.68	14.64	1.57
	100.73	20.33	73.72	0.00	0.0656	11.35	499.5	375.79	0.0802	681.6	12.269	22.56	14.56	1.57
	101.73	20.31	73.72	-0.00	0.0657	11.35	499.6	375.80	0.0803	681.6	12.269	22.56	14.56	1.57
	102.71	20.33	73.72	0.00	0.0656	11.35	499.4	375.70	0.0805	683.9	12.311	22.64	14.61	1.57
	103.79	20.31	73.69	0.00	0.0656	11.32	498.0	374.74	0.0800	678.2	12.207	22.45	14.48	1.57
	104.71	20.35	73.69	0.00	0.0657	11.36	499.8	376.12	0.0801	680.5	12.250	22.53	14.53	1.57
	105.72	20.35	73.72	0.00	0.0657	11.36	499.8	376.02	0.0806	682.6	12.287	22.59	14.58	1.57
	106.74	20.35	73.72	-0.00	0.0657	11.37	500.2	376.32	0.0804	682.5	12.285	22.59	14.58	1.57
	107.72	20.35	73.69	0.00	0.0657	11.37	500.2	376.40	0.0802	681.4	12.265	22.56	14.55	1.57
	108.70	20.37	73.72	0.00	0.0656	11.33	498.6	375.12	0.0803	681.8	12.273	22.57	14.56	1.57
	109.73	20.35	73.69	-0.00	0.0657	11.36	499.7	376.05	0.0806	685.9	12.347	22.71	14.66	1.57
	110.70	20.35	73.69	0.00	0.0655	11.34	498.8	375.40	0.0808	686.5	12.356	22.73	14.67	1.57
	111.71	20.37	73.72	0.00	0.0657	11.34	499.0	375.40	0.0805	684.8	12.326	22.67	14.63	1.57
	112.73	20.37	73.69	0.00	0.0655	11.30	497.3	374.26	0.0807	685.9	12.347	22.71	14.66	1.58
	113.71	20.37	73.69	-0.00	0.0655	11.32	497.9	374.71	0.0807	685.6	12.340	22.70	14.65	1.57
	114.74	20.37	73.72	-0.00	0.0656	11.33	498.5	375.02	0.0805	684.7	12.324	22.66	14.63	1.57
	115.71	20.39	73.72	0.00	0.0656	11.32	498.2	374.87	0.0805	683.4	12.302	22.63	14.60	1.57
	116.70	20.38	73.72	0.00	0.0653	11.27	496.0	373.17	0.0805	684.5	12.321	22.66	14.63	1.58
	117.70	20.40	73.75	0.00	0.0655	11.30	497.3	374.08	0.0809	688.2	12.387	22.77	14.71	1.57
	118.72	20.40	73.74	0.00	0.0654	11.29	496.7	373.60	0.0807	687.1	12.367	22.74	14.68	1.58
	119.73	20.42	73.72	-0.00	0.0655	11.32	498.2	374.89	0.0809	689.1	12.404	22.82	14.73	1.58
	120.73	20.43	73.72	-0.00	0.0653	11.30	497.3	374.19	0.0809	691.9	12.455	22.91	14.79	1.58
	121.73	20.47	73.72	0.00	0.0652	11.26	495.7	373.03	0.0809	689.6	12.413	22.84	14.74	1.58
