Jul 23 2015 at 11:05:43
Frequency: 1.00Hz.
CO2
Zero:  Value:0.95  Date:18 Mar 2005	 at 07:22:33	
Span:  Value:1.00  Date:18 Mar 2005	 at 07:25:09	
H2O
Zero:  Value:0.71  Date:18 Mar 2005	 at 07:52:31	
Span:  Value:0.99  Date:18 Mar 2005	 at 11:44:01	
	Relative Time	Temperature	Pressure	Aux Input	CO2 Absorptance	CO2 mmol/m3	CO2 mg/m3	CO2 umol/mol	H2O Absorptance	H2O mmol/m3	H2O g/m3	H2O mmol/mol	H2O(°C)	Cooler Voltage
	0.31	31.37	73.77	-0.00	0.0689	12.11	533.0	415.70	0.0534	380.7	6.852	13.06	6.38	1.56
	1.29	31.37	73.77	0.00	0.0689	12.08	531.6	414.62	0.0532	379.1	6.823	13.01	6.32	1.56
	2.29	31.39	73.77	0.00	0.0690	12.12	533.4	416.05	0.0534	378.8	6.818	13.00	6.31	1.56
	3.31	31.39	73.77	-0.00	0.0690	12.11	532.7	415.55	0.0535	381.5	6.868	13.10	6.41	1.56
	4.32	31.39	73.74	-0.00	0.0691	12.11	532.8	415.73	0.0536	381.7	6.871	13.11	6.42	1.56
	5.30	31.39	73.77	-0.00	0.0689	12.12	533.2	415.92	0.0541	384.4	6.919	13.19	6.52	1.56
	6.30	31.41	73.80	0.00	0.0690	12.10	532.6	415.32	0.0539	382.9	6.891	13.14	6.46	1.56
	7.30	31.37	73.77	-0.00	0.0688	12.06	530.6	413.87	0.0548	391.6	7.049	13.44	6.79	1.56
	8.31	31.35	73.77	-0.00	0.0687	12.05	530.0	413.40	0.0551	396.8	7.142	13.62	6.98	1.56
	9.38	31.39	73.77	0.00	0.0687	12.02	529.0	412.68	0.0553	397.8	7.161	13.65	7.02	1.56
	10.30	31.34	73.77	0.00	0.0686	12.02	528.8	412.43	0.0558	403.2	7.258	13.84	7.22	1.56
	11.29	31.39	73.77	0.00	0.0684	11.97	526.6	410.81	0.0579	423.0	7.615	14.52	7.92	1.56
	12.31	31.39	73.74	0.00	0.0683	11.96	526.2	410.59	0.0579	426.6	7.679	14.65	8.05	1.56
	13.29	31.39	73.74	0.00	0.0683	11.95	525.6	410.16	0.0582	428.1	7.705	14.70	8.09	1.56
	14.30	31.37	73.77	0.00	0.0682	11.93	524.7	409.28	0.0586	431.8	7.772	14.82	8.22	1.56
	15.29	31.35	73.77	0.00	0.0681	11.91	524.2	408.85	0.0590	434.0	7.812	14.89	8.30	1.56
	16.30	31.34	73.75	0.00	0.0681	11.90	523.5	408.44	0.0594	440.7	7.933	15.13	8.52	1.56
	17.32	31.35	73.77	-0.00	0.0681	11.91	524.2	408.82	0.0590	433.9	7.811	14.89	8.29	1.56
	18.30	31.34	73.77	0.00	0.0681	11.89	523.1	407.98	0.0595	441.9	7.954	15.16	8.56	1.56
	19.30	31.35	73.77	0.00	0.0678	11.87	522.3	407.37	0.0604	444.8	8.007	15.27	8.66	1.56
	20.31	31.34	73.77	0.00	0.0679	11.84	521.0	406.36	0.0605	451.8	8.132	15.50	8.89	1.56
	21.31	31.37	73.77	-0.00	0.0679	11.86	521.6	406.86	0.0604	451.2	8.122	15.48	8.87	1.56
	22.31	31.37	73.74	-0.00	0.0679	11.85	521.2	406.70	0.0603	449.7	8.095	15.44	8.82	1.56
	23.29	31.37	73.77	0.00	0.0679	11.84	521.0	406.37	0.0606	452.7	8.148	15.54	8.92	1.56
	24.37	31.37	73.77	0.00	0.0676	11.82	519.9	405.51	0.0615	459.4	8.270	15.77	9.14	1.56
	25.32	31.37	73.77	0.00	0.0676	11.77	517.8	403.88	0.0621	471.1	8.479	16.17	9.51	1.56
	26.30	31.37	73.74	0.00	0.0675	11.79	518.6	404.63	0.0622	467.0	8.407	16.03	9.38	1.56
	27.30	31.37	73.80	0.00	0.0675	11.76	517.5	403.49	0.0624	473.5	8.523	16.24	9.59	1.56
	28.30	31.41	73.77	-0.00	0.0671	11.71	515.3	401.95	0.0639	482.7	8.689	16.57	9.88	1.56
	29.31	31.35	73.77	0.00	0.0673	11.71	515.2	401.84	0.0628	480.5	8.649	16.49	9.80	1.56
	30.30	31.30	73.80	0.00	0.0674	11.72	515.6	401.92	0.0624	473.7	8.526	16.25	9.59	1.56
	31.31	31.30	73.77	-0.00	0.0672	11.72	515.5	401.98	0.0632	478.5	8.613	16.42	9.74	1.56
	32.29	31.23	73.77	0.00	0.0669	11.62	511.3	398.61	0.0654	506.3	9.113	17.37	10.58	1.56
	33.32	31.20	73.75	-0.00	0.0669	11.62	511.1	398.58	0.0654	507.7	9.139	17.42	10.62	1.56
	34.29	31.21	73.77	0.00	0.0667	11.58	509.6	397.31	0.0667	519.0	9.342	17.80	10.95	1.56
	35.30	31.25	73.74	0.00	0.0668	11.60	510.3	398.01	0.0661	514.3	9.258	17.65	10.82	1.57
	36.29	31.23	73.80	0.00	0.0667	11.60	510.4	397.82	0.0664	515.0	9.270	17.66	10.84	1.57
	37.31	31.21	73.77	-0.00	0.0667	11.60	510.3	397.79	0.0666	514.7	9.265	17.66	10.83	1.56
	38.38	31.23	73.74	0.00	0.0666	11.57	509.0	396.95	0.0672	522.2	9.399	17.92	11.04	1.57
	39.38	31.25	73.74	-0.00	0.0665	11.54	507.7	395.98	0.0678	531.6	9.568	18.24	11.31	1.56
	40.31	31.22	73.75	-0.00	0.0665	11.54	507.8	396.04	0.0679	531.7	9.571	18.25	11.32	1.56
	41.29	31.23	73.77	0.00	0.0666	11.55	508.1	396.16	0.0676	529.7	9.535	18.17	11.26	1.57
	42.31	31.19	73.80	-0.00	0.0664	11.54	507.7	395.66	0.0673	526.3	9.474	18.05	11.16	1.57
	43.32	31.25	73.77	-0.00	0.0666	11.55	508.2	396.26	0.0674	526.7	9.481	18.07	11.18	1.57
	44.29	31.27	73.77	0.00	0.0665	11.53	507.1	395.40	0.0674	531.7	9.571	18.24	11.32	1.56
	45.30	31.27	73.80	-0.00	0.0664	11.53	507.1	395.28	0.0676	529.5	9.531	18.16	11.26	1.57
	46.30	31.19	73.77	0.00	0.0662	11.50	506.0	394.42	0.0686	538.0	9.684	18.45	11.49	1.57
	47.30	31.25	73.77	-0.00	0.0663	11.49	505.5	394.14	0.0687	542.9	9.772	18.63	11.63	1.57
	48.31	31.19	73.74	-0.00	0.0662	11.49	505.5	394.18	0.0687	540.9	9.736	18.56	11.57	1.57
	49.30	31.23	73.74	0.00	0.0660	11.45	504.0	393.04	0.0698	553.2	9.958	18.98	11.92	1.57
	50.30	31.25	73.77	0.00	0.0659	11.42	502.5	391.77	0.0706	561.6	10.109	19.27	12.15	1.57
	51.31	31.32	73.74	0.00	0.0659	11.42	502.5	392.01	0.0708	562.0	10.115	19.29	12.16	1.57
	52.29	31.26	73.74	0.00	0.0658	11.38	500.9	390.71	0.0710	570.2	10.264	19.57	12.38	1.57
	53.31	31.31	73.74	-0.00	0.0659	11.40	501.7	391.39	0.0708	566.1	10.190	19.43	12.27	1.57
	54.32	31.29	73.77	-0.00	0.0660	11.41	502.0	391.49	0.0699	558.1	10.045	19.15	12.05	1.57
	55.30	31.28	73.77	0.00	0.0660	11.43	502.9	392.12	0.0698	555.9	10.006	19.07	11.99	1.57
	56.30	31.29	73.77	0.00	0.0658	11.40	501.4	390.97	0.0709	565.7	10.182	19.41	12.26	1.57
	57.30	31.27	73.80	-0.00	0.0659	11.41	501.8	391.15	0.0705	560.5	10.089	19.22	12.12	1.57
	58.30	31.27	73.80	0.00	0.0659	11.42	502.4	391.61	0.0702	557.4	10.032	19.12	12.03	1.57
	59.31	31.28	73.77	-0.00	0.0658	11.38	500.8	390.52	0.0708	564.8	10.167	19.38	12.23	1.57
	60.29	31.29	73.80	0.00	0.0659	11.38	500.8	390.42	0.0703	565.1	10.172	19.38	12.24	1.57
	61.31	31.28	73.77	0.00	0.0656	11.37	500.1	389.98	0.0717	571.0	10.278	19.59	12.40	1.57
	62.31	31.33	73.74	-0.00	0.0653	11.31	497.6	388.18	0.0734	588.4	10.591	20.20	12.86	1.57
	63.30	31.33	73.74	-0.00	0.0655	11.30	497.2	387.88	0.0732	594.4	10.700	20.41	13.02	1.57
	64.30	31.31	73.77	0.00	0.0656	11.34	498.8	388.97	0.0721	580.8	10.454	19.93	12.66	1.57
	65.29	31.27	73.77	0.00	0.0654	11.33	498.5	388.72	0.0729	581.5	10.466	19.95	12.68	1.57
	66.30	31.29	73.80	0.00	0.0654	11.29	496.8	387.28	0.0729	594.0	10.693	20.37	13.00	1.57
	67.38	31.26	73.72	0.00	0.0654	11.31	497.5	388.19	0.0729	588.8	10.599	20.22	12.87	1.57
	68.30	31.31	73.80	0.00	0.0654	11.30	497.2	387.62	0.0726	590.2	10.623	20.24	12.91	1.57
	69.31	31.27	73.77	-0.00	0.0654	11.30	497.2	387.66	0.0730	590.9	10.637	20.27	12.92	1.57
	70.29	31.26	73.74	0.00	0.0653	11.27	495.8	386.69	0.0737	599.8	10.796	20.58	13.15	1.57
	71.29	31.29	73.77	0.00	0.0650	11.25	495.0	385.98	0.0746	606.2	10.911	20.80	13.31	1.57
	72.31	31.31	73.77	0.00	0.0651	11.21	493.1	384.57	0.0745	610.6	10.990	20.95	13.43	1.57
	73.31	31.31	73.80	-0.00	0.0647	11.15	490.8	382.59	0.0764	626.2	11.272	21.48	13.82	1.57
	74.30	31.30	73.77	0.00	0.0650	11.17	491.4	383.20	0.0750	623.8	11.228	21.40	13.75	1.57
	75.29	31.31	73.77	0.00	0.0652	11.25	494.8	385.90	0.0746	609.1	10.963	20.90	13.39	1.57
	76.30	31.33	73.74	0.00	0.0649	11.15	490.5	382.69	0.0755	627.9	11.303	21.56	13.86	1.57
	77.30	31.30	73.72	0.00	0.0648	11.15	490.7	382.94	0.0761	630.1	11.341	21.63	13.91	1.57
	78.30	31.35	73.74	0.00	0.0646	11.11	488.6	381.25	0.0767	644.3	11.597	22.12	14.26	1.57
	79.30	31.35	73.77	0.00	0.0649	11.19	492.4	384.06	0.0756	618.6	11.135	21.23	13.63	1.57
	80.31	31.33	73.74	-0.00	0.0650	11.20	492.8	384.43	0.0753	617.0	11.105	21.18	13.59	1.57
	81.29	31.37	73.80	0.00	0.0646	11.15	490.8	382.66	0.0769	631.0	11.358	21.65	13.94	1.57
	82.31	31.34	73.77	-0.00	0.0648	11.16	491.2	383.12	0.0760	626.6	11.279	21.50	13.83	1.57
	83.29	31.33	73.82	0.00	0.0648	11.12	489.3	381.35	0.0758	635.6	11.440	21.79	14.04	1.57
	84.30	31.35	73.75	-0.00	0.0649	11.19	492.5	384.21	0.0755	619.8	11.157	21.28	13.66	1.57
	85.30	31.32	73.80	0.00	0.0648	11.18	492.1	383.61	0.0756	619.5	11.151	21.25	13.65	1.57
	86.28	31.35	73.77	0.00	0.0650	11.20	492.8	384.33	0.0751	618.9	11.141	21.24	13.64	1.57
	87.31	31.35	73.77	-0.00	0.0649	11.18	492.1	383.81	0.0757	623.4	11.220	21.39	13.75	1.57
	88.30	31.33	73.80	0.00	0.0647	11.15	490.7	382.52	0.0764	630.9	11.356	21.64	13.93	1.58
	89.31	31.35	73.74	0.00	0.0646	11.12	489.2	381.67	0.0768	637.4	11.473	21.88	14.09	1.57
	90.34	31.33	73.74	-0.00	0.0644	11.08	487.7	380.51	0.0776	646.0	11.627	22.17	14.29	1.57
	91.29	31.33	73.74	0.00	0.0645	11.05	486.1	379.23	0.0774	647.8	11.661	22.24	14.34	1.57
	92.29	31.32	73.77	0.00	0.0645	11.05	486.4	379.30	0.0778	655.8	11.804	22.50	14.53	1.57
	93.38	31.31	73.80	-0.00	0.0642	11.00	483.9	377.27	0.0791	669.9	12.059	22.98	14.86	1.57
	94.29	31.31	73.74	0.00	0.0643	11.05	486.2	379.32	0.0786	660.3	11.886	22.66	14.63	1.57
	95.30	31.30	73.75	0.00	0.0642	11.03	485.5	378.69	0.0792	665.7	11.982	22.85	14.76	1.57
	96.31	31.30	73.77	-0.00	0.0642	11.04	485.9	378.91	0.0789	661.3	11.904	22.69	14.66	1.57
	97.30	31.30	73.77	0.00	0.0644	11.07	486.9	379.69	0.0784	659.0	11.861	22.61	14.60	1.58
	98.31	31.32	73.77	-0.00	0.0644	11.04	485.9	378.94	0.0784	661.5	11.906	22.70	14.66	1.58
	99.30	31.35	73.74	-0.00	0.0641	11.01	484.3	377.85	0.0794	670.1	12.062	23.00	14.86	1.58
	100.29	31.33	73.74	0.00	0.0641	10.99	483.4	377.16	0.0793	673.8	12.129	23.13	14.95	1.58
	101.39	31.33	73.77	-0.00	0.0640	11.00	484.1	377.57	0.0793	671.9	12.093	23.05	14.90	1.58
	102.31	31.33	73.74	-0.00	0.0640	11.02	484.9	378.32	0.0798	668.4	12.031	22.94	14.82	1.58
	103.30	31.31	73.77	0.00	0.0641	11.01	484.6	377.88	0.0793	669.1	12.044	22.96	14.84	1.58
	104.30	31.33	73.77	-0.00	0.0640	10.97	482.8	376.57	0.0802	679.9	12.237	23.33	15.09	1.58
	105.30	31.33	73.74	0.00	0.0640	10.97	482.5	376.41	0.0797	680.8	12.255	23.37	15.11	1.58
	106.30	31.30	73.77	0.00	0.0637	10.93	480.8	374.96	0.0812	695.2	12.514	23.85	15.43	1.58
	107.36	31.27	73.77	0.00	0.0639	10.94	481.4	375.34	0.0805	689.1	12.403	23.64	15.29	1.58
	108.30	31.25	73.74	0.00	0.0637	10.93	480.8	374.97	0.0815	695.8	12.525	23.88	15.44	1.58
	109.31	31.27	73.77	-0.00	0.0638	10.96	482.2	376.01	0.0806	687.1	12.368	23.57	15.25	1.58
	110.31	31.25	73.77	0.00	0.0639	10.97	482.5	376.22	0.0806	687.6	12.376	23.59	15.26	1.58
	111.29	31.24	73.74	0.00	0.0640	10.99	483.5	377.13	0.0803	680.5	12.249	23.35	15.10	1.58
	112.31	31.25	73.77	-0.00	0.0640	10.99	483.5	377.01	0.0804	683.4	12.301	23.44	15.16	1.58
	113.30	31.25	73.77	-0.00	0.0640	11.00	484.0	377.40	0.0805	684.2	12.316	23.47	15.18	1.58
	114.30	31.23	73.74	0.00	0.0639	10.98	483.1	376.77	0.0806	685.9	12.347	23.54	15.22	1.58
	115.30	31.25	73.80	-0.00	0.0640	10.97	482.8	376.30	0.0805	682.5	12.284	23.41	15.14	1.58
	116.30	31.25	73.74	0.00	0.0640	10.99	483.4	377.05	0.0805	682.1	12.278	23.41	15.13	1.58
	117.30	31.25	73.74	0.00	0.0639	10.96	482.4	376.24	0.0806	686.2	12.352	23.55	15.23	1.58
	118.30	31.27	73.77	0.00	0.0640	10.97	482.8	376.43	0.0802	682.2	12.280	23.41	15.14	1.58
	119.29	31.25	73.77	0.00	0.0639	10.97	482.8	376.42	0.0802	681.4	12.265	23.38	15.12	1.58
	120.29	31.11	73.77	0.00	0.0640	10.98	483.1	376.46	0.0801	680.2	12.243	23.32	15.08	1.58
	121.29	30.97	73.77	0.00	0.0639	10.96	482.0	375.49	0.0805	684.0	12.312	23.44	15.16	1.58
	122.31	30.98	73.77	0.00	0.0639	10.97	482.8	376.10	0.0804	684.2	12.315	23.45	15.17	1.58
	123.30	30.99	73.74	-0.00	0.0639	10.97	482.6	376.12	0.0805	683.9	12.310	23.45	15.16	1.58
