Jul 23 2015 at 9:39:31
Frequency: 1.00Hz.
CO2
Zero:  Value:0.95  Date:18 Mar 2005	 at 07:22:33	
Span:  Value:1.00  Date:18 Mar 2005	 at 07:25:09	
H2O
Zero:  Value:0.71  Date:18 Mar 2005	 at 07:52:31	
Span:  Value:0.99  Date:18 Mar 2005	 at 11:44:01	
	Relative Time	Temperature	Pressure	Aux Input	CO2 Absorptance	CO2 mmol/m3	CO2 mg/m3	CO2 umol/mol	H2O Absorptance	H2O mmol/m3	H2O g/m3	H2O mmol/mol	H2O(°C)	Cooler Voltage
	0.03	24.01	73.72	0.00	0.0680	11.81	519.5	395.68	0.0717	588.7	10.596	19.73	12.50	1.62
	1.01	23.99	73.72	0.00	0.0670	11.64	512.1	390.06	0.0753	619.8	11.157	20.77	13.28	1.62
	2.01	23.99	73.72	0.00	0.0670	11.68	514.1	391.55	0.0747	608.9	10.961	20.41	13.01	1.62
	3.01	24.01	73.77	0.00	0.0673	11.71	515.3	392.26	0.0735	598.7	10.776	20.05	12.75	1.62
	4.09	24.01	73.72	0.00	0.0674	11.75	517.1	393.84	0.0737	600.1	10.802	20.11	12.79	1.62
	5.02	24.01	73.72	-0.00	0.0675	11.78	518.4	394.82	0.0727	587.2	10.569	19.68	12.46	1.62
	6.01	24.01	73.69	0.00	0.0680	11.81	519.6	395.92	0.0708	577.4	10.394	19.36	12.20	1.62
	7.02	24.01	73.74	-0.00	0.0680	11.88	522.8	398.10	0.0700	554.5	9.980	18.58	11.59	1.62
	8.02	24.03	73.74	-0.00	0.0679	11.87	522.5	397.83	0.0710	563.3	10.140	18.87	11.83	1.62
	9.00	24.01	73.72	0.00	0.0679	11.87	522.4	397.88	0.0707	565.9	10.187	18.97	11.90	1.62
	10.02	24.03	73.75	0.00	0.0677	11.82	520.0	395.93	0.0710	567.5	10.215	19.01	11.94	1.62
	11.00	24.03	73.72	0.00	0.0680	11.88	522.6	398.07	0.0710	566.8	10.203	19.00	11.92	1.62
	12.03	24.05	73.72	-0.00	0.0681	11.89	523.0	398.39	0.0708	567.8	10.220	19.03	11.95	1.62
	13.01	24.03	73.72	-0.00	0.0680	11.88	522.8	398.20	0.0706	563.5	10.143	18.89	11.83	1.62
	14.01	24.03	73.72	0.00	0.0681	11.90	523.7	398.90	0.0708	565.5	10.180	18.95	11.89	1.62
	15.01	24.03	73.74	0.00	0.0679	11.87	522.1	397.55	0.0707	564.1	10.153	18.90	11.85	1.62
	16.00	24.04	73.75	0.00	0.0681	11.91	524.0	399.00	0.0708	566.0	10.188	18.96	11.90	1.62
	17.00	24.06	73.72	0.00	0.0680	11.89	523.0	398.44	0.0707	563.7	10.146	18.89	11.84	1.62
	18.00	24.06	73.74	0.00	0.0679	11.87	522.4	397.82	0.0706	564.3	10.157	18.91	11.86	1.62
	19.02	24.06	73.72	0.00	0.0682	11.91	524.2	399.31	0.0712	570.4	10.267	19.12	12.02	1.62
	20.03	24.06	73.72	-0.00	0.0682	11.92	524.4	399.49	0.0714	572.7	10.308	19.20	12.08	1.62
	21.01	24.06	73.75	0.00	0.0680	11.91	523.9	398.98	0.0714	573.5	10.322	19.22	12.10	1.62
	22.09	24.06	73.72	0.00	0.0678	11.83	520.6	396.57	0.0716	574.3	10.337	19.25	12.12	1.62
	23.01	24.10	73.72	0.00	0.0681	11.88	522.7	398.27	0.0718	576.0	10.368	19.31	12.17	1.62
	24.02	24.08	73.72	-0.00	0.0680	11.88	522.6	398.15	0.0719	578.8	10.419	19.40	12.24	1.62
	25.02	24.08	73.72	-0.00	0.0679	11.86	521.7	397.43	0.0717	576.5	10.376	19.32	12.18	1.62
	26.04	24.06	73.72	-0.00	0.0679	11.85	521.2	397.06	0.0718	576.0	10.368	19.31	12.17	1.62
	27.00	24.10	73.74	0.00	0.0680	11.87	522.3	397.78	0.0720	580.1	10.442	19.44	12.28	1.62
	28.00	24.08	73.72	0.00	0.0679	11.86	522.0	397.67	0.0721	579.8	10.437	19.44	12.27	1.62
	29.02	24.08	73.72	-0.00	0.0678	11.84	521.1	396.98	0.0721	580.6	10.451	19.46	12.29	1.62
	30.00	24.08	73.72	0.00	0.0678	11.84	521.0	396.93	0.0725	584.6	10.522	19.60	12.39	1.62
	31.01	24.08	73.72	0.00	0.0677	11.82	519.9	396.08	0.0724	584.9	10.529	19.61	12.40	1.62
	32.01	24.08	73.74	0.00	0.0677	11.81	519.6	395.75	0.0725	585.2	10.533	19.61	12.41	1.62
	33.01	24.08	73.72	0.00	0.0677	11.82	520.0	396.13	0.0727	587.6	10.577	19.70	12.47	1.62
	33.99	24.05	73.72	0.00	0.0677	11.82	520.2	396.30	0.0729	588.1	10.587	19.71	12.48	1.62
	35.01	24.08	73.74	0.00	0.0676	11.79	518.9	395.19	0.0730	592.9	10.672	19.87	12.61	1.62
	35.99	24.10	73.69	0.00	0.0676	11.79	518.6	395.27	0.0729	590.2	10.624	19.79	12.54	1.62
	37.02	24.12	73.72	-0.00	0.0676	11.78	518.5	395.08	0.0731	593.6	10.684	19.90	12.63	1.62
	38.00	24.10	73.72	-0.00	0.0676	11.78	518.4	394.97	0.0732	593.8	10.689	19.91	12.63	1.62
	39.02	24.10	73.69	-0.00	0.0675	11.76	517.3	394.29	0.0735	597.0	10.747	20.02	12.72	1.62
	40.00	24.10	73.72	0.00	0.0675	11.77	518.0	394.63	0.0735	597.8	10.760	20.04	12.74	1.62
	41.01	24.12	73.72	-0.00	0.0675	11.75	517.2	394.04	0.0733	596.4	10.735	19.99	12.70	1.62
	42.01	24.13	73.72	-0.00	0.0674	11.75	516.9	393.91	0.0737	599.7	10.794	20.11	12.79	1.62
	43.01	24.12	73.69	0.00	0.0674	11.75	517.0	394.06	0.0736	600.6	10.810	20.14	12.81	1.62
	44.01	24.12	73.74	-0.00	0.0674	11.74	516.6	393.47	0.0735	598.1	10.765	20.04	12.74	1.62
	45.02	24.12	73.72	0.00	0.0674	11.74	516.6	393.64	0.0736	599.9	10.799	20.11	12.79	1.62
	46.02	24.12	73.72	-0.00	0.0673	11.72	515.8	393.00	0.0736	599.2	10.786	20.09	12.77	1.62
	47.02	24.09	73.72	0.00	0.0670	11.66	513.1	390.94	0.0735	599.6	10.792	20.10	12.78	1.62
	48.02	24.12	73.72	-0.00	0.0671	11.66	513.0	390.87	0.0739	601.4	10.825	20.16	12.83	1.62
	49.02	24.12	73.72	0.00	0.0671	11.67	513.7	391.39	0.0752	616.9	11.104	20.68	13.22	1.62
	50.01	24.11	73.72	-0.00	0.0671	11.68	513.9	391.57	0.0750	615.9	11.086	20.65	13.19	1.62
	51.03	24.13	73.74	-0.00	0.0670	11.66	513.2	390.91	0.0744	609.2	10.965	20.42	13.03	1.62
	52.01	24.13	73.72	-0.00	0.0670	11.66	512.9	390.84	0.0746	612.0	11.016	20.52	13.10	1.62
	53.01	24.11	73.75	0.00	0.0669	11.63	511.7	389.74	0.0743	606.8	10.923	20.34	12.97	1.62
	54.10	24.13	73.77	-0.00	0.0669	11.65	512.7	390.37	0.0746	613.1	11.037	20.54	13.13	1.62
	55.01	24.15	73.72	0.00	0.0670	11.66	513.2	391.07	0.0749	614.2	11.056	20.59	13.15	1.62
	56.03	24.13	73.72	-0.00	0.0670	11.65	512.8	390.73	0.0750	616.0	11.089	20.65	13.20	1.62
	57.00	24.15	73.74	0.00	0.0668	11.61	510.9	389.19	0.0748	613.1	11.036	20.55	13.12	1.62
	58.03	24.15	73.72	-0.00	0.0669	11.63	511.9	390.08	0.0749	614.6	11.063	20.61	13.16	1.62
	59.02	24.15	73.72	-0.00	0.0667	11.62	511.2	389.53	0.0755	617.6	11.117	20.71	13.24	1.62
	60.01	24.17	73.72	0.00	0.0667	11.58	509.6	388.33	0.0757	625.9	11.265	20.99	13.44	1.62
	61.01	24.15	73.72	0.00	0.0667	11.58	509.5	388.24	0.0756	625.0	11.249	20.95	13.42	1.62
	62.03	24.17	73.72	-0.00	0.0666	11.56	508.8	387.74	0.0754	621.9	11.194	20.85	13.34	1.62
	63.09	24.17	73.72	-0.00	0.0667	11.59	510.1	388.76	0.0748	614.0	11.051	20.59	13.15	1.62
	64.02	24.18	73.69	-0.00	0.0667	11.58	509.5	388.45	0.0751	617.1	11.107	20.70	13.22	1.62
	65.02	24.17	73.72	-0.00	0.0666	11.57	509.1	388.01	0.0755	621.7	11.190	20.85	13.34	1.62
	66.02	24.17	73.72	-0.00	0.0666	11.57	509.2	388.06	0.0757	624.2	11.235	20.93	13.40	1.62
	67.00	24.17	73.75	0.00	0.0664	11.54	507.7	386.75	0.0756	624.4	11.240	20.93	13.41	1.62
	68.02	24.17	73.74	-0.00	0.0664	11.52	506.7	386.00	0.0756	623.0	11.214	20.88	13.37	1.62
	69.01	24.17	73.72	-0.00	0.0666	11.57	509.0	387.92	0.0753	619.6	11.152	20.77	13.29	1.62
	70.01	24.18	73.72	0.00	0.0667	11.59	510.0	388.71	0.0754	620.7	11.172	20.81	13.31	1.62
	71.00	24.17	73.72	0.00	0.0667	11.58	509.6	388.36	0.0756	623.6	11.225	20.91	13.39	1.62
	72.03	24.19	73.72	0.00	0.0666	11.57	509.0	387.94	0.0759	627.5	11.294	21.04	13.48	1.62
	73.01	24.18	73.72	0.00	0.0666	11.56	508.5	387.53	0.0760	628.0	11.303	21.06	13.49	1.62
	74.02	24.19	73.72	-0.00	0.0665	11.55	508.2	387.32	0.0760	627.9	11.303	21.06	13.49	1.62
	75.02	24.21	73.72	-0.00	0.0664	11.53	507.5	386.83	0.0764	631.3	11.364	21.17	13.58	1.62
	76.02	24.21	73.72	-0.00	0.0664	11.53	507.3	386.64	0.0764	633.6	11.405	21.25	13.63	1.62
	77.09	24.18	73.74	-0.00	0.0664	11.52	507.1	386.30	0.0764	634.0	11.412	21.25	13.64	1.62
	78.02	24.21	73.72	-0.00	0.0663	11.50	506.0	385.69	0.0764	632.0	11.376	21.19	13.59	1.62
	79.03	24.21	73.72	-0.00	0.0664	11.51	506.6	386.12	0.0764	632.8	11.391	21.22	13.61	1.62
	80.00	24.21	73.72	0.00	0.0663	11.50	506.0	385.67	0.0765	634.2	11.415	21.27	13.65	1.62
	81.01	24.20	73.74	0.00	0.0664	11.52	506.8	386.15	0.0766	634.7	11.425	21.28	13.66	1.62
	82.09	24.22	73.72	0.00	0.0663	11.50	505.8	385.55	0.0766	635.7	11.442	21.32	13.68	1.62
	83.02	24.21	73.72	-0.00	0.0663	11.51	506.2	385.85	0.0769	637.9	11.483	21.39	13.74	1.62
	84.01	24.22	73.72	0.00	0.0663	11.51	506.2	385.86	0.0769	639.3	11.508	21.44	13.77	1.62
	85.00	24.21	73.72	0.00	0.0664	11.51	506.6	386.11	0.0767	636.8	11.462	21.35	13.71	1.62
	86.00	24.22	73.72	0.00	0.0663	11.51	506.3	385.91	0.0767	636.3	11.453	21.34	13.70	1.62
	87.02	24.22	73.72	0.00	0.0662	11.49	505.5	385.31	0.0765	635.0	11.430	21.30	13.67	1.62
	88.03	24.22	73.72	-0.00	0.0661	11.46	504.3	384.43	0.0766	635.4	11.437	21.31	13.68	1.62
	89.08	24.22	73.72	0.00	0.0661	11.44	503.4	383.74	0.0767	637.0	11.465	21.36	13.71	1.62
	90.03	24.22	73.72	-0.00	0.0662	11.47	504.6	384.63	0.0767	635.3	11.435	21.31	13.67	1.62
	91.01	24.24	73.72	-0.00	0.0661	11.47	504.7	384.75	0.0769	639.7	11.515	21.46	13.78	1.62
	91.99	24.24	73.72	0.00	0.0661	11.45	503.8	384.04	0.0768	638.1	11.486	21.40	13.74	1.62
	93.08	24.24	73.72	-0.00	0.0661	11.46	504.4	384.45	0.0769	637.9	11.483	21.40	13.74	1.62
	94.02	24.24	73.72	-0.00	0.0661	11.46	504.4	384.46	0.0771	641.6	11.549	21.52	13.83	1.62
	95.00	24.26	73.72	0.00	0.0662	11.46	504.4	384.51	0.0771	641.9	11.554	21.53	13.83	1.62
	96.02	24.25	73.72	-0.00	0.0662	11.46	504.2	384.37	0.0771	640.7	11.532	21.49	13.81	1.62
	97.02	24.25	73.69	-0.00	0.0660	11.43	503.0	383.55	0.0769	638.2	11.487	21.41	13.74	1.62
	98.02	24.26	73.72	-0.00	0.0660	11.44	503.2	383.62	0.0770	640.3	11.526	21.48	13.80	1.62
	99.00	24.25	73.75	0.00	0.0660	11.44	503.3	383.52	0.0772	643.0	11.573	21.56	13.86	1.62
	100.01	24.26	73.72	0.00	0.0661	11.44	503.3	383.66	0.0773	642.5	11.565	21.55	13.85	1.62
	101.07	24.24	73.75	0.00	0.0661	11.44	503.5	383.63	0.0773	644.7	11.604	21.61	13.90	1.62
	102.01	24.26	73.72	0.00	0.0660	11.42	502.4	383.01	0.0771	642.0	11.556	21.53	13.84	1.62
	102.99	24.26	73.72	0.00	0.0660	11.42	502.7	383.19	0.0774	645.2	11.613	21.64	13.91	1.62
	104.02	24.30	73.72	-0.00	0.0660	11.43	502.7	383.27	0.0774	644.2	11.596	21.61	13.89	1.62
	105.02	24.28	73.72	-0.00	0.0660	11.43	503.0	383.46	0.0774	645.8	11.625	21.66	13.93	1.62
	106.03	24.28	73.72	-0.00	0.0660	11.43	502.7	383.26	0.0773	644.8	11.607	21.63	13.91	1.62
	107.09	24.31	73.72	-0.00	0.0659	11.41	502.1	382.85	0.0777	648.4	11.671	21.75	13.99	1.62
	108.00	24.31	73.74	0.00	0.0659	11.41	502.1	382.68	0.0779	651.5	11.728	21.85	14.07	1.62
	109.03	24.29	73.72	-0.00	0.0659	11.41	501.9	382.62	0.0778	650.8	11.714	21.83	14.05	1.62
	110.00	24.31	73.72	0.00	0.0658	11.40	501.4	382.31	0.0778	650.8	11.715	21.83	14.05	1.62
	111.01	24.31	73.72	0.00	0.0658	11.38	500.6	381.69	0.0779	651.2	11.721	21.85	14.06	1.62
	112.02	24.31	73.77	-0.00	0.0658	11.39	501.3	381.96	0.0781	653.9	11.770	21.92	14.12	1.62
	113.01	24.31	73.74	0.00	0.0658	11.39	501.1	381.96	0.0780	652.5	11.745	21.88	14.09	1.62
	114.02	24.33	73.72	-0.00	0.0658	11.38	500.6	381.73	0.0780	651.4	11.726	21.86	14.07	1.62
	115.02	24.33	73.72	-0.00	0.0657	11.37	500.5	381.62	0.0778	651.0	11.719	21.84	14.06	1.62
	116.02	24.35	73.74	0.00	0.0658	11.38	500.7	381.67	0.0779	651.8	11.732	21.86	14.08	1.62
	117.02	24.33	73.72	-0.00	0.0657	11.38	500.5	381.66	0.0779	652.8	11.751	21.90	14.10	1.62
	118.03	24.33	73.72	-0.00	0.0657	11.36	499.8	381.11	0.0782	655.1	11.791	21.98	14.15	1.62
	119.01	24.33	73.72	-0.00	0.0657	11.36	499.7	381.01	0.0781	654.3	11.777	21.95	14.13	1.62
	120.01	24.33	73.74	0.00	0.0657	11.35	499.4	380.64	0.0783	654.7	11.785	21.96	14.14	1.62
	121.01	24.33	73.72	0.00	0.0656	11.34	498.9	380.39	0.0782	655.9	11.806	22.00	14.17	1.62
	122.01	24.35	73.72	0.00	0.0656	11.34	499.0	380.51	0.0781	654.3	11.777	21.95	14.13	1.62
