Jul 23 2015 at 9:32:46
Frequency: 1.00Hz.
CO2
Zero:  Value:0.95  Date:18 Mar 2005	 at 07:22:33	
Span:  Value:1.00  Date:18 Mar 2005	 at 07:25:09	
H2O
Zero:  Value:0.71  Date:18 Mar 2005	 at 07:52:31	
Span:  Value:0.99  Date:18 Mar 2005	 at 11:44:01	
	Relative Time	Temperature	Pressure	Aux Input	CO2 Absorptance	CO2 mmol/m3	CO2 mg/m3	CO2 umol/mol	H2O Absorptance	H2O mmol/m3	H2O g/m3	H2O mmol/mol	H2O(°C)	Cooler Voltage
	0.33	22.93	73.72	0.00	0.0682	11.93	525.0	398.41	0.0692	550.6	9.910	18.38	11.43	1.62
	1.33	22.93	73.72	-0.00	0.0685	12.00	527.8	400.55	0.0681	536.8	9.663	17.93	11.04	1.62
	2.32	22.95	73.72	-0.00	0.0684	11.97	526.8	399.78	0.0681	537.4	9.673	17.95	11.06	1.61
	3.31	22.93	73.72	0.00	0.0690	12.13	533.9	405.19	0.0662	511.4	9.205	17.08	10.32	1.61
	4.32	22.93	73.74	0.00	0.0691	12.14	534.1	405.17	0.0660	511.1	9.201	17.06	10.31	1.61
	5.32	22.94	73.72	-0.00	0.0690	12.10	532.5	404.12	0.0667	519.1	9.344	17.34	10.54	1.61
	6.33	22.94	73.74	-0.00	0.0689	12.11	532.7	404.16	0.0671	526.2	9.472	17.57	10.75	1.61
	7.32	22.94	73.75	-0.00	0.0688	12.08	531.5	403.22	0.0679	529.7	9.535	17.68	10.84	1.62
	8.33	22.95	73.72	-0.00	0.0688	12.07	531.1	403.06	0.0676	526.8	9.483	17.59	10.76	1.61
	9.31	22.95	73.72	-0.00	0.0687	12.05	530.0	402.25	0.0676	528.3	9.509	17.64	10.80	1.61
	10.33	22.95	73.74	-0.00	0.0686	12.02	529.1	401.41	0.0680	533.2	9.598	17.80	10.94	1.61
	11.31	22.94	73.72	-0.00	0.0685	12.01	528.4	401.01	0.0683	536.2	9.652	17.91	11.03	1.61
	12.31	22.96	73.72	0.00	0.0684	11.97	526.6	399.69	0.0684	537.7	9.678	17.96	11.07	1.61
	13.32	22.98	73.72	-0.00	0.0684	11.98	527.1	400.12	0.0688	538.5	9.692	17.98	11.09	1.61
	14.32	22.96	73.72	-0.00	0.0683	11.93	524.7	398.28	0.0693	553.5	9.964	18.49	11.51	1.61
	15.32	22.98	73.74	0.00	0.0680	11.87	522.3	396.35	0.0711	569.4	10.249	19.01	11.94	1.61
	16.30	22.96	73.74	0.00	0.0678	12.15	534.5	405.52	0.0710	559.0	10.062	18.66	11.66	1.61
	17.32	22.96	73.72	-0.00	0.0679	11.85	521.4	395.72	0.0702	558.4	10.050	18.65	11.64	1.61
	18.32	22.96	73.72	0.00	0.0679	11.87	522.2	396.34	0.0701	556.0	10.008	18.57	11.58	1.61
	19.31	22.98	73.72	-0.00	0.0679	11.85	521.5	395.85	0.0706	563.7	10.147	18.83	11.79	1.61
	20.39	22.98	73.72	-0.00	0.0679	11.86	521.9	396.15	0.0709	565.6	10.181	18.89	11.84	1.61
	21.31	22.98	73.72	-0.00	0.0678	11.86	521.7	395.96	0.0709	566.1	10.190	18.91	11.85	1.61
	22.31	22.98	73.72	0.00	0.0677	11.85	521.3	395.67	0.0716	571.6	10.288	19.09	12.00	1.61
	23.31	22.98	73.72	0.00	0.0678	11.82	520.3	394.91	0.0713	572.7	10.309	19.13	12.03	1.61
	24.32	22.98	73.72	-0.00	0.0678	11.83	520.6	395.17	0.0714	573.0	10.314	19.14	12.03	1.61
	25.32	22.98	73.74	0.00	0.0677	11.82	519.9	394.50	0.0717	576.0	10.368	19.23	12.11	1.61
	26.32	22.98	73.72	0.00	0.0674	11.73	516.1	391.75	0.0720	578.5	10.414	19.32	12.18	1.61
	27.32	23.00	73.72	0.00	0.0675	11.79	518.6	393.68	0.0722	582.5	10.485	19.45	12.28	1.61
	28.31	22.98	73.72	0.00	0.0676	11.76	517.2	392.60	0.0720	576.0	10.367	19.24	12.11	1.61
	29.31	23.00	73.72	0.00	0.0676	11.78	518.3	393.41	0.0721	574.8	10.347	19.20	12.08	1.61
	30.33	23.00	73.72	0.00	0.0672	11.70	514.9	390.85	0.0730	588.2	10.588	19.65	12.43	1.61
	31.31	23.00	73.69	0.00	0.0673	11.72	515.5	391.43	0.0729	592.5	10.665	19.80	12.54	1.61
	32.32	23.00	73.74	-0.00	0.0673	11.73	516.1	391.66	0.0728	589.6	10.613	19.69	12.47	1.61
	33.31	23.00	73.67	0.00	0.0672	11.72	515.5	391.59	0.0729	590.1	10.623	19.72	12.48	1.61
	34.32	23.02	73.69	-0.00	0.0673	11.73	515.9	391.80	0.0732	591.6	10.648	19.77	12.52	1.61
	35.30	23.01	73.72	0.00	0.0671	11.67	513.3	389.64	0.0732	594.2	10.696	19.85	12.59	1.61
	36.32	23.02	73.72	0.00	0.0671	11.66	513.0	389.40	0.0729	590.8	10.634	19.73	12.50	1.61
	37.30	23.02	73.72	0.00	0.0672	11.73	516.0	391.74	0.0731	590.1	10.622	19.71	12.48	1.61
	38.31	23.01	73.72	0.00	0.0670	11.67	513.3	389.67	0.0742	602.2	10.839	20.11	12.79	1.61
	39.31	23.01	73.72	-0.00	0.0673	11.69	514.3	390.42	0.0733	599.1	10.783	20.01	12.71	1.61
	40.33	23.04	73.72	-0.00	0.0670	11.66	513.2	389.63	0.0739	599.1	10.784	20.01	12.71	1.61
	41.31	23.03	73.74	0.00	0.0669	11.66	513.1	389.41	0.0737	600.3	10.805	20.04	12.74	1.61
	42.31	23.03	73.74	0.00	0.0670	11.65	512.6	389.04	0.0741	604.0	10.872	20.17	12.84	1.61
	43.31	23.05	73.72	0.00	0.0668	11.62	511.3	388.19	0.0744	609.8	10.976	20.37	12.98	1.61
	44.32	23.03	73.72	0.00	0.0671	11.68	514.1	390.31	0.0736	599.4	10.789	20.02	12.72	1.61
	45.30	23.05	73.72	0.00	0.0671	11.68	513.9	390.14	0.0737	599.8	10.797	20.04	12.73	1.61
	46.30	23.05	73.74	0.00	0.0667	11.61	510.7	387.56	0.0745	608.4	10.952	20.32	12.95	1.61
	47.31	23.05	73.74	-0.00	0.0664	11.54	507.7	385.36	0.0749	617.2	11.109	20.61	13.17	1.61
	48.31	23.05	73.72	0.00	0.0664	11.61	511.0	387.98	0.0750	608.9	10.960	20.34	12.96	1.61
	49.31	23.05	73.72	0.00	0.0663	11.52	506.8	384.81	0.0754	620.4	11.167	20.72	13.25	1.61
	50.39	23.07	73.72	-0.00	0.0665	11.50	506.0	384.20	0.0750	618.5	11.132	20.66	13.20	1.61
	51.31	23.05	73.72	-0.00	0.0663	11.48	505.2	383.53	0.0755	619.2	11.146	20.69	13.22	1.61
	52.32	23.05	73.72	-0.00	0.0663	11.51	506.3	384.41	0.0748	614.9	11.069	20.54	13.11	1.61
	53.31	23.07	73.72	0.00	0.0667	11.59	509.8	387.08	0.0746	611.5	11.007	20.43	13.03	1.61
	54.32	23.06	73.69	-0.00	0.0667	11.58	509.3	386.86	0.0750	615.1	11.073	20.56	13.12	1.61
	55.30	23.06	73.72	0.00	0.0668	11.60	510.4	387.54	0.0749	613.7	11.046	20.50	13.08	1.61
	56.33	23.08	73.72	-0.00	0.0666	11.56	508.8	386.33	0.0755	618.0	11.123	20.65	13.19	1.61
	57.39	23.07	73.74	-0.00	0.0665	11.55	508.1	385.61	0.0754	619.5	11.151	20.69	13.23	1.61
	58.31	23.06	73.72	0.00	0.0663	11.50	506.0	384.20	0.0750	617.8	11.120	20.64	13.19	1.61
	59.33	23.08	73.72	-0.00	0.0663	11.49	505.7	384.00	0.0754	619.6	11.153	20.70	13.23	1.61
	60.31	23.08	73.72	0.00	0.0666	11.54	508.0	385.70	0.0754	620.8	11.174	20.74	13.26	1.61
	61.32	23.08	73.74	-0.00	0.0665	11.54	507.7	385.34	0.0756	622.3	11.202	20.78	13.30	1.61
	62.38	23.06	73.74	0.00	0.0665	11.54	507.6	385.23	0.0756	623.2	11.218	20.81	13.32	1.61
	63.30	23.08	73.72	0.00	0.0661	11.46	504.3	382.93	0.0759	626.3	11.273	20.92	13.40	1.61
	64.32	23.08	73.75	0.00	0.0661	11.47	504.8	383.14	0.0758	626.6	11.278	20.93	13.40	1.61
	65.30	23.08	73.75	0.00	0.0660	11.44	503.4	382.08	0.0763	629.7	11.335	21.03	13.48	1.61
	66.32	23.08	73.72	0.00	0.0660	11.45	503.7	382.43	0.0767	635.2	11.434	21.22	13.61	1.61
	67.31	23.10	73.74	-0.00	0.0655	11.35	499.4	379.05	0.0775	645.8	11.625	21.57	13.87	1.61
	68.33	23.12	73.72	-0.00	0.0655	11.30	497.2	377.58	0.0780	652.0	11.737	21.79	14.02	1.61
	69.37	23.10	73.69	0.00	0.0655	11.37	500.1	379.89	0.0780	651.2	11.722	21.77	14.00	1.61
	70.33	23.10	73.72	-0.00	0.0651	11.26	495.3	376.13	0.0791	663.0	11.934	22.15	14.27	1.61
	71.31	23.10	73.72	-0.00	0.0651	11.22	493.7	374.89	0.0787	663.4	11.941	22.16	14.28	1.61
	72.38	23.12	73.72	-0.00	0.0654	11.31	497.6	377.87	0.0783	657.7	11.838	21.97	14.15	1.61
	73.32	23.12	73.72	-0.00	0.0654	11.30	497.1	377.47	0.0781	655.4	11.797	21.90	14.10	1.61
	74.30	23.10	73.72	0.00	0.0656	11.36	499.7	379.47	0.0778	647.1	11.648	21.62	13.90	1.61
	75.30	23.14	73.74	0.00	0.0655	11.32	497.9	377.97	0.0779	650.9	11.716	21.74	13.99	1.61
	76.32	23.14	73.74	-0.00	0.0655	11.34	498.8	378.70	0.0782	651.8	11.733	21.77	14.01	1.61
	77.31	23.14	73.74	-0.00	0.0651	11.26	495.3	376.05	0.0786	662.0	11.916	22.11	14.25	1.61
	78.31	23.13	73.72	0.00	0.0651	11.23	494.3	375.36	0.0791	668.4	12.031	22.33	14.40	1.61
	79.30	23.14	73.72	0.00	0.0652	11.23	494.3	375.40	0.0794	669.7	12.054	22.38	14.43	1.61
	80.31	23.14	73.72	0.00	0.0651	11.23	494.3	375.36	0.0795	671.4	12.085	22.44	14.47	1.61
	81.31	23.15	73.72	0.00	0.0653	11.27	496.1	376.75	0.0795	670.8	12.075	22.42	14.46	1.61
	82.34	23.15	73.69	-0.00	0.0652	11.26	495.4	376.40	0.0792	668.8	12.039	22.36	14.41	1.61
	83.31	23.13	73.72	0.00	0.0649	11.18	491.9	373.57	0.0796	673.5	12.122	22.50	14.52	1.61
	84.30	23.17	73.72	0.00	0.0648	11.17	491.4	373.25	0.0796	673.8	12.129	22.52	14.53	1.61
	85.32	23.15	73.72	0.00	0.0649	11.18	491.8	373.53	0.0794	670.4	12.067	22.40	14.45	1.61
	86.31	23.15	73.72	-0.00	0.0654	11.30	497.2	377.60	0.0787	661.5	11.907	22.11	14.24	1.61
	87.39	23.15	73.72	-0.00	0.0649	11.25	494.9	375.85	0.0790	662.5	11.925	22.14	14.27	1.61
	88.31	23.15	73.72	-0.00	0.0652	11.25	495.0	375.98	0.0791	666.3	11.994	22.27	14.35	1.61
	89.33	23.13	73.69	-0.00	0.0652	11.26	495.2	376.23	0.0794	669.1	12.044	22.37	14.42	1.61
	90.29	23.15	73.72	0.00	0.0650	11.22	493.6	374.86	0.0801	677.7	12.198	22.65	14.61	1.61
	91.32	23.17	73.72	-0.00	0.0651	11.22	493.6	374.92	0.0799	676.1	12.171	22.60	14.58	1.61
	92.37	23.17	73.74	0.00	0.0651	11.21	493.3	374.53	0.0797	674.4	12.139	22.53	14.54	1.61
	93.30	23.17	73.75	0.00	0.0651	11.22	493.6	374.76	0.0800	676.9	12.185	22.61	14.60	1.61
	94.32	23.17	73.72	-0.00	0.0650	11.22	493.7	374.99	0.0799	676.8	12.182	22.62	14.60	1.61
	95.30	23.17	73.72	0.00	0.0648	11.20	492.6	374.15	0.0808	685.5	12.339	22.91	14.79	1.61
	96.30	23.19	73.72	0.00	0.0645	11.10	488.6	371.13	0.0811	691.6	12.448	23.11	14.93	1.61
	97.30	23.19	73.80	0.00	0.0645	11.12	489.5	371.42	0.0813	692.3	12.462	23.11	14.95	1.61
	98.31	23.19	73.74	-0.00	0.0641	11.02	484.7	368.03	0.0822	705.8	12.705	23.58	15.25	1.61
	99.31	23.17	73.72	-0.00	0.0642	11.03	485.4	368.71	0.0819	697.1	12.548	23.30	15.05	1.61
	100.31	23.19	73.69	-0.00	0.0643	11.05	486.2	369.44	0.0815	695.3	12.515	23.25	15.01	1.61
	101.39	23.20	73.72	-0.00	0.0639	10.98	483.0	366.92	0.0824	706.3	12.714	23.61	15.26	1.61
	102.31	23.21	73.72	-0.00	0.0643	11.05	486.0	369.19	0.0815	695.3	12.516	23.24	15.02	1.61
	103.30	23.21	73.72	0.00	0.0643	11.07	487.1	370.00	0.0813	694.0	12.491	23.19	14.99	1.61
	104.29	23.20	73.72	0.00	0.0642	11.02	485.0	368.43	0.0818	700.8	12.614	23.42	15.14	1.61
	105.30	23.21	73.72	0.00	0.0641	11.04	485.8	368.99	0.0818	702.1	12.637	23.47	15.17	1.61
	106.30	23.21	73.74	0.00	0.0643	11.03	485.5	368.67	0.0821	706.9	12.724	23.62	15.27	1.61
	107.31	23.20	73.72	0.00	0.0642	11.04	485.7	368.91	0.0823	706.1	12.709	23.60	15.26	1.61
	108.31	23.21	73.77	0.00	0.0640	11.00	483.9	367.36	0.0824	707.1	12.728	23.62	15.28	1.61
	109.31	23.21	73.72	0.00	0.0641	11.02	484.8	368.27	0.0823	706.8	12.723	23.62	15.27	1.61
	110.31	23.22	73.72	0.00	0.0640	10.97	482.8	366.75	0.0828	713.2	12.837	23.84	15.41	1.61
	111.31	23.21	73.72	0.00	0.0640	10.98	483.0	366.91	0.0829	715.7	12.883	23.92	15.47	1.61
	112.31	23.22	73.72	0.00	0.0638	10.95	481.6	365.87	0.0831	717.5	12.915	23.98	15.51	1.61
	113.30	23.22	73.72	0.00	0.0638	10.94	481.4	365.71	0.0831	717.8	12.921	23.99	15.51	1.61
	114.30	23.22	73.72	0.00	0.0640	10.96	482.0	366.18	0.0828	714.1	12.853	23.87	15.43	1.61
	115.32	23.22	73.74	0.00	0.0640	10.99	483.6	367.24	0.0829	715.0	12.870	23.89	15.45	1.61
	116.31	23.20	73.72	-0.00	0.0640	10.98	483.1	366.96	0.0828	714.4	12.859	23.88	15.44	1.61
	117.31	23.26	73.72	-0.00	0.0640	10.98	483.2	367.13	0.0829	714.8	12.867	23.90	15.45	1.61
	118.31	23.24	73.72	-0.00	0.0638	10.96	482.5	366.52	0.0831	717.3	12.912	23.98	15.50	1.61
	119.31	23.26	73.72	0.00	0.0637	10.92	480.5	365.07	0.0834	721.8	12.992	24.13	15.60	1.61
	120.29	23.26	73.72	0.00	0.0636	10.91	479.8	364.54	0.0835	722.6	13.008	24.16	15.62	1.61
	121.31	23.24	73.72	0.00	0.0632	10.82	476.1	361.71	0.0840	727.5	13.096	24.32	15.72	1.61
