Jul 23 2015 at 10:28:34
Frequency: 1.00Hz.
CO2
Zero:  Value:0.95  Date:18 Mar 2005	 at 07:22:33	
Span:  Value:1.00  Date:18 Mar 2005	 at 07:25:09	
H2O
Zero:  Value:0.71  Date:18 Mar 2005	 at 07:52:31	
Span:  Value:0.99  Date:18 Mar 2005	 at 11:44:01	
	Relative Time	Temperature	Pressure	Aux Input	CO2 Absorptance	CO2 mmol/m3	CO2 mg/m3	CO2 umol/mol	H2O Absorptance	H2O mmol/m3	H2O g/m3	H2O mmol/mol	H2O(°C)	Cooler Voltage
	0.84	31.29	73.75	0.00	0.0669	11.65	512.6	399.84	0.0781	653.0	11.753	22.41	14.46	1.68
	1.86	31.33	73.74	0.00	0.0668	11.60	510.6	398.32	0.0781	654.2	11.776	22.46	14.49	1.68
	2.84	31.29	73.77	0.00	0.0665	11.55	508.3	396.40	0.0776	648.3	11.669	22.24	14.35	1.68
	3.84	31.29	73.74	0.00	0.0667	11.59	510.0	397.80	0.0772	644.0	11.593	22.11	14.25	1.68
	4.84	31.31	73.74	0.00	0.0668	11.62	511.1	398.70	0.0776	646.5	11.638	22.19	14.31	1.68
	5.83	31.33	73.77	0.00	0.0670	11.64	512.1	399.42	0.0778	648.4	11.671	22.25	14.35	1.68
	6.85	31.31	73.77	0.00	0.0671	11.66	513.2	400.21	0.0776	646.8	11.642	22.19	14.31	1.68
	7.85	31.35	73.74	0.00	0.0669	11.64	512.1	399.57	0.0775	647.4	11.653	22.23	14.33	1.68
	8.83	31.33	73.75	0.00	0.0671	11.67	513.3	400.43	0.0772	643.4	11.581	22.09	14.23	1.68
	9.84	31.35	73.74	0.00	0.0671	11.68	513.7	400.81	0.0764	635.8	11.444	21.82	14.05	1.68
	10.84	31.33	73.75	-0.00	0.0674	11.74	516.7	403.08	0.0756	624.3	11.237	21.43	13.77	1.68
	11.84	31.33	73.74	0.00	0.0675	11.78	518.4	404.41	0.0757	620.0	11.161	21.28	13.66	1.68
	12.84	31.33	73.74	0.00	0.0674	11.73	516.2	402.74	0.0760	629.4	11.329	21.61	13.89	1.68
	13.85	31.33	73.77	-0.00	0.0674	11.73	516.1	402.46	0.0759	626.0	11.268	21.48	13.81	1.68
	14.84	31.35	73.74	0.00	0.0671	11.69	514.5	401.40	0.0767	632.4	11.382	21.71	13.97	1.68
	15.83	31.37	73.77	0.00	0.0672	11.70	514.7	401.49	0.0764	630.2	11.343	21.63	13.92	1.68
	16.83	31.32	73.74	0.00	0.0668	11.62	511.4	398.95	0.0772	641.8	11.552	22.03	14.19	1.68
	17.83	31.31	73.74	0.00	0.0668	11.63	511.5	399.04	0.0778	648.5	11.674	22.26	14.36	1.68
	18.84	31.31	73.74	-0.00	0.0669	11.64	512.0	399.42	0.0768	639.5	11.511	21.95	14.14	1.68
	19.84	31.33	73.77	0.00	0.0670	11.65	512.4	399.66	0.0767	635.6	11.441	21.81	14.05	1.68
	20.84	31.31	73.74	0.00	0.0671	11.66	513.2	400.37	0.0770	640.0	11.521	21.97	14.15	1.68
	21.86	31.33	73.74	-0.00	0.0673	11.70	514.9	401.71	0.0768	638.3	11.490	21.91	14.11	1.68
	22.84	31.35	73.77	0.00	0.0673	11.71	515.2	401.82	0.0770	639.6	11.513	21.95	14.14	1.68
	23.85	31.34	73.72	0.00	0.0672	11.70	514.9	401.83	0.0770	640.8	11.534	22.00	14.17	1.68
	24.84	31.34	73.74	0.00	0.0673	11.71	515.4	402.11	0.0766	636.4	11.456	21.85	14.07	1.68
	25.85	31.35	73.74	0.00	0.0674	11.73	516.2	402.77	0.0763	631.7	11.371	21.69	13.95	1.68
	26.83	31.37	73.77	0.00	0.0675	11.76	517.3	403.53	0.0761	629.4	11.329	21.60	13.90	1.68
	27.85	31.35	73.75	0.00	0.0674	11.75	517.0	403.38	0.0757	625.2	11.253	21.46	13.79	1.68
	28.84	31.37	73.77	-0.00	0.0675	11.76	517.4	403.56	0.0753	619.1	11.144	21.25	13.64	1.68
	29.84	31.37	73.75	0.00	0.0677	11.79	518.7	404.71	0.0749	615.2	11.073	21.12	13.54	1.68
	30.84	31.37	73.74	0.00	0.0677	11.80	519.3	405.18	0.0751	616.3	11.093	21.16	13.57	1.68
	31.86	31.37	73.77	-0.00	0.0677	11.80	519.3	405.05	0.0749	614.9	11.068	21.10	13.54	1.68
	32.93	31.36	73.75	-0.00	0.0677	11.80	519.2	405.10	0.0746	611.8	11.012	21.00	13.46	1.69
	33.85	31.37	73.74	-0.00	0.0676	11.78	518.5	404.57	0.0745	609.8	10.977	20.94	13.41	1.69
	34.84	31.39	73.72	0.00	0.0676	11.79	518.6	404.82	0.0744	608.8	10.959	20.91	13.39	1.69
	35.85	31.39	73.74	-0.00	0.0676	11.79	518.6	404.64	0.0746	610.9	10.997	20.98	13.44	1.68
	36.85	31.41	73.75	-0.00	0.0677	11.79	518.7	404.74	0.0747	611.7	11.011	21.00	13.46	1.68
	37.85	31.37	73.77	0.00	0.0676	11.80	519.1	404.92	0.0745	610.2	10.984	20.94	13.42	1.69
	38.84	31.36	73.74	-0.00	0.0676	11.80	519.1	405.04	0.0745	609.0	10.962	20.91	13.39	1.69
	39.84	31.36	73.74	0.00	0.0676	11.79	518.9	404.84	0.0748	613.2	11.038	21.05	13.50	1.69
	40.83	31.39	73.72	0.00	0.0676	11.79	519.0	405.10	0.0748	614.1	11.054	21.09	13.52	1.69
	41.85	31.39	73.74	-0.00	0.0676	11.79	518.6	404.66	0.0747	613.1	11.036	21.05	13.49	1.69
	42.84	31.38	73.74	-0.00	0.0676	11.79	518.9	404.90	0.0748	613.3	11.039	21.06	13.50	1.69
	43.85	31.39	73.74	-0.00	0.0677	11.80	519.2	405.13	0.0749	614.1	11.054	21.09	13.52	1.69
	44.91	31.41	73.80	0.00	0.0677	11.81	519.8	405.39	0.0752	618.0	11.124	21.20	13.62	1.69
	45.83	31.39	73.74	0.00	0.0678	11.84	520.8	406.40	0.0753	620.0	11.159	21.29	13.66	1.69
	46.83	31.41	73.74	-0.00	0.0678	11.84	521.0	406.56	0.0749	615.6	11.080	21.14	13.56	1.69
	47.84	31.39	73.77	-0.00	0.0678	11.85	521.3	406.66	0.0748	613.4	11.042	21.05	13.50	1.69
	48.84	31.39	73.74	0.00	0.0680	11.87	522.1	407.42	0.0748	613.6	11.044	21.07	13.51	1.69
	49.84	31.43	73.77	0.00	0.0680	11.88	522.8	407.84	0.0749	614.8	11.066	21.10	13.54	1.69
	50.86	31.41	73.74	-0.00	0.0680	11.87	522.1	407.44	0.0751	617.2	11.109	21.19	13.60	1.69
	51.85	31.39	73.77	0.00	0.0679	11.86	521.7	406.98	0.0750	617.9	11.122	21.21	13.61	1.69
	52.84	31.42	73.77	0.00	0.0679	11.87	522.1	407.29	0.0747	613.1	11.035	21.04	13.49	1.69
	53.85	31.43	73.74	0.00	0.0680	11.87	522.4	407.68	0.0747	612.0	11.015	21.01	13.47	1.69
	54.83	31.44	73.72	0.00	0.0680	11.87	522.1	407.61	0.0744	609.0	10.963	20.92	13.39	1.69
	55.85	31.45	73.74	0.00	0.0680	11.87	522.3	407.62	0.0743	606.9	10.924	20.84	13.34	1.69
	56.83	31.45	73.74	0.00	0.0680	11.88	522.7	407.99	0.0746	610.4	10.988	20.96	13.43	1.69
	57.84	31.47	73.75	0.00	0.0680	11.88	522.9	408.14	0.0750	615.4	11.078	21.14	13.56	1.69
	58.83	31.45	73.74	0.00	0.0680	11.89	523.0	408.19	0.0752	618.6	11.135	21.24	13.63	1.69
	59.84	31.45	73.74	0.00	0.0680	11.89	523.2	408.34	0.0752	618.5	11.134	21.24	13.63	1.69
	60.84	31.45	73.77	-0.00	0.0681	11.89	523.2	408.19	0.0752	617.3	11.112	21.19	13.60	1.69
	61.85	31.43	73.77	-0.00	0.0681	11.90	523.7	408.60	0.0754	619.4	11.149	21.26	13.65	1.69
	62.84	31.45	73.80	0.00	0.0682	11.93	524.8	409.33	0.0757	624.4	11.240	21.43	13.78	1.69
	63.85	31.45	73.77	-0.00	0.0682	11.93	524.9	409.55	0.0758	625.1	11.252	21.46	13.79	1.69
	64.86	31.47	73.77	-0.00	0.0683	11.94	525.4	409.92	0.0760	627.4	11.294	21.54	13.85	1.69
	65.83	31.45	73.77	0.00	0.0683	11.93	524.8	409.45	0.0763	630.8	11.354	21.65	13.93	1.69
	66.86	31.47	73.77	-0.00	0.0682	11.92	524.4	409.14	0.0763	631.9	11.375	21.70	13.96	1.69
	67.84	31.47	73.77	-0.00	0.0681	11.90	523.7	408.61	0.0762	630.5	11.349	21.65	13.93	1.70
	68.84	31.49	73.77	0.00	0.0680	11.89	523.3	408.37	0.0761	629.7	11.334	21.62	13.91	1.69
	69.84	31.51	73.74	-0.00	0.0682	11.92	524.4	409.33	0.0766	633.5	11.402	21.76	14.00	1.69
	70.86	31.51	73.77	-0.00	0.0683	11.96	526.2	410.63	0.0770	640.5	11.530	21.99	14.17	1.69
	71.92	31.49	73.74	-0.00	0.0685	11.98	527.0	411.36	0.0768	637.5	11.475	21.90	14.10	1.69
	72.84	31.48	73.75	0.00	0.0684	11.98	527.1	411.40	0.0762	631.6	11.369	21.69	13.96	1.69
	73.85	31.47	73.74	-0.00	0.0683	11.96	526.4	410.86	0.0758	627.5	11.295	21.55	13.85	1.70
	74.91	31.49	73.74	0.00	0.0683	11.95	525.8	410.45	0.0758	626.0	11.268	21.50	13.82	1.69
	75.83	31.49	73.72	0.00	0.0683	11.94	525.3	410.17	0.0755	623.3	11.219	21.41	13.75	1.69
	76.85	31.49	73.77	0.00	0.0681	11.91	524.1	408.99	0.0749	615.7	11.082	21.14	13.56	1.69
	77.83	31.47	73.77	0.00	0.0681	11.90	523.5	408.45	0.0747	611.5	11.006	20.99	13.46	1.69
	78.92	31.49	73.74	-0.00	0.0681	11.90	523.6	408.68	0.0745	610.0	10.980	20.95	13.42	1.70
	79.83	31.51	73.77	0.00	0.0682	11.93	524.8	409.56	0.0748	614.0	11.053	21.08	13.52	1.69
	80.86	31.51	73.77	-0.00	0.0682	11.93	524.8	409.51	0.0750	615.6	11.081	21.14	13.56	1.70
	81.84	31.51	73.74	0.00	0.0682	11.91	524.3	409.25	0.0749	614.7	11.064	21.11	13.54	1.69
	82.85	31.51	73.74	0.00	0.0682	11.91	523.9	409.01	0.0750	615.0	11.071	21.13	13.55	1.69
	83.85	31.49	73.74	-0.00	0.0683	11.94	525.5	410.22	0.0755	620.4	11.167	21.31	13.68	1.70
	84.85	31.51	73.74	0.00	0.0684	11.97	526.6	411.08	0.0757	624.1	11.234	21.44	13.77	1.70
	85.85	31.46	73.77	-0.00	0.0684	11.96	526.1	410.51	0.0758	624.8	11.247	21.45	13.79	1.70
	86.86	31.49	73.77	-0.00	0.0684	11.96	526.3	410.66	0.0759	626.9	11.285	21.53	13.84	1.70
	87.86	31.54	73.77	-0.00	0.0684	11.97	526.6	410.97	0.0761	629.2	11.326	21.61	13.90	1.70
	88.86	31.50	73.74	0.00	0.0685	12.00	527.8	411.99	0.0766	634.5	11.422	21.79	14.03	1.70
	89.86	31.54	73.77	-0.00	0.0686	12.00	528.2	412.21	0.0767	636.1	11.450	21.84	14.07	1.70
	90.86	31.56	73.74	-0.00	0.0685	12.00	527.9	412.19	0.0766	635.5	11.439	21.83	14.05	1.70
	91.84	31.51	73.74	0.00	0.0686	12.02	528.8	412.76	0.0769	638.2	11.487	21.92	14.12	1.70
	92.85	31.53	73.77	0.00	0.0687	12.03	529.3	413.07	0.0770	640.5	11.529	21.99	14.17	1.70
	93.83	31.53	73.75	0.00	0.0687	12.04	529.7	413.52	0.0771	641.5	11.547	22.03	14.20	1.70
	94.85	31.50	73.77	0.00	0.0687	12.02	529.1	412.86	0.0768	638.0	11.484	21.91	14.11	1.70
	95.83	31.53	73.77	0.00	0.0686	12.00	528.2	412.19	0.0764	633.1	11.395	21.74	13.99	1.70
	96.84	31.56	73.74	0.00	0.0686	12.01	528.2	412.42	0.0762	631.0	11.357	21.68	13.94	1.70
	97.83	31.51	73.74	0.00	0.0688	12.04	529.7	413.50	0.0767	635.7	11.442	21.83	14.06	1.70
	98.86	31.51	73.72	-0.00	0.0690	12.09	532.1	415.54	0.0773	644.9	11.608	22.16	14.28	1.70
	99.84	31.49	73.77	-0.00	0.0689	12.07	531.2	414.48	0.0772	641.6	11.549	22.03	14.20	1.70
	100.84	31.51	73.74	0.00	0.0689	12.07	530.9	414.42	0.0771	641.0	11.538	22.02	14.18	1.70
	101.92	31.51	73.72	-0.00	0.0689	12.07	531.3	414.87	0.0772	642.1	11.557	22.06	14.21	1.70
	102.85	31.51	73.72	-0.00	0.0688	12.06	530.6	414.37	0.0771	641.9	11.553	22.05	14.21	1.70
	103.83	31.49	73.74	0.00	0.0689	12.06	530.6	414.17	0.0773	643.0	11.574	22.08	14.23	1.70
	104.85	31.47	73.75	0.00	0.0691	12.12	533.1	416.07	0.0779	650.6	11.711	22.34	14.41	1.70
	105.83	31.51	73.72	0.00	0.0690	12.11	532.7	415.95	0.0777	649.0	11.683	22.30	14.38	1.70
	106.84	31.52	73.75	0.00	0.0691	12.11	532.9	416.03	0.0778	649.3	11.688	22.30	14.38	1.70
	107.83	31.56	73.74	0.00	0.0690	12.10	532.5	415.78	0.0777	648.4	11.671	22.27	14.36	1.70
	108.84	31.54	73.77	0.00	0.0691	12.11	533.0	415.95	0.0777	648.4	11.672	22.27	14.36	1.70
	109.84	31.53	73.75	0.00	0.0690	12.11	532.8	415.92	0.0774	646.3	11.634	22.20	14.31	1.70
	110.87	31.53	73.77	-0.00	0.0689	12.07	531.0	414.42	0.0769	638.8	11.498	21.93	14.13	1.70
	111.85	31.52	73.74	0.00	0.0690	12.09	531.9	415.26	0.0771	639.8	11.516	21.98	14.16	1.70
	112.85	31.52	73.80	0.00	0.0690	12.10	532.3	415.28	0.0772	642.5	11.565	22.05	14.22	1.70
	113.85	31.53	73.77	-0.00	0.0691	12.11	533.0	415.92	0.0774	644.8	11.607	22.14	14.28	1.71
	114.86	31.53	73.74	-0.00	0.0692	12.14	534.2	417.06	0.0779	650.2	11.704	22.34	14.41	1.70
	115.92	31.56	73.77	-0.00	0.0692	12.14	534.2	416.93	0.0779	651.6	11.729	22.38	14.44	1.70
	116.84	31.55	73.69	0.00	0.0691	12.13	533.7	416.99	0.0778	650.4	11.707	22.36	14.41	1.70
	117.84	31.56	73.74	0.00	0.0691	12.13	533.7	416.71	0.0779	651.1	11.719	22.37	14.43	1.70
	118.84	31.51	73.77	0.00	0.0691	12.14	534.0	416.71	0.0781	654.2	11.775	22.46	14.50	1.70
	119.84	31.53	73.72	0.00	0.0691	12.13	533.7	416.79	0.0780	653.8	11.769	22.47	14.49	1.71
	120.85	31.53	73.77	-0.00	0.0691	12.12	533.1	416.05	0.0781	653.2	11.758	22.43	14.48	1.71
	121.84	31.51	73.75	0.00	0.0691	12.13	533.9	416.75	0.0783	656.2	11.812	22.54	14.55	1.71
