Jul 23 2015 at 9:07:22
Frequency: 1.00Hz.
CO2
Zero:  Value:0.95  Date:18 Mar 2005	 at 07:22:33	
Span:  Value:1.00  Date:18 Mar 2005	 at 07:25:09	
H2O
Zero:  Value:0.71  Date:18 Mar 2005	 at 07:52:31	
Span:  Value:0.99  Date:18 Mar 2005	 at 11:44:01	
	Relative Time	Temperature	Pressure	Aux Input	CO2 Absorptance	CO2 mmol/m3	CO2 mg/m3	CO2 umol/mol	H2O Absorptance	H2O mmol/m3	H2O g/m3	H2O mmol/mol	H2O(°C)	Cooler Voltage
	0.70	17.72	73.72	0.00	0.0687	12.04	529.8	395.02	0.0780	654.7	11.784	21.48	13.80	1.49
	1.70	17.71	73.67	-0.00	0.0691	12.11	532.8	397.47	0.0765	630.8	11.355	20.71	13.23	1.49
	2.78	17.76	73.72	-0.00	0.0694	12.18	536.0	399.68	0.0721	597.0	10.746	19.59	12.39	1.49
	3.68	17.72	73.69	0.00	0.0695	12.23	537.9	401.20	0.0702	562.1	10.119	18.45	11.47	1.49
	4.70	17.74	73.72	0.00	0.0696	12.25	539.1	401.93	0.0697	555.8	10.004	18.23	11.30	1.49
	5.68	17.74	73.72	0.00	0.0697	12.27	540.0	402.59	0.0707	559.6	10.073	18.36	11.40	1.49
	6.69	17.76	73.72	0.00	0.0696	12.23	538.2	401.31	0.0724	581.3	10.463	19.07	11.98	1.49
	7.69	17.76	73.69	0.00	0.0694	12.22	537.7	401.06	0.0722	583.2	10.498	19.14	12.03	1.49
	8.77	17.77	73.72	-0.00	0.0693	12.20	536.7	400.21	0.0732	593.5	10.683	19.47	12.30	1.49
	9.69	17.76	73.72	0.00	0.0689	12.10	532.5	397.07	0.0763	628.2	11.307	20.61	13.16	1.49
	10.69	17.76	73.72	0.00	0.0688	12.06	530.8	395.79	0.0770	639.5	11.511	20.98	13.44	1.49
	11.68	17.75	73.72	0.00	0.0688	12.05	530.2	395.36	0.0777	647.2	11.649	21.23	13.62	1.49
	12.68	17.74	73.69	0.00	0.0688	12.06	530.5	395.66	0.0782	653.8	11.768	21.46	13.78	1.49
	13.68	17.74	73.72	0.00	0.0688	12.06	530.8	395.80	0.0784	657.2	11.829	21.56	13.86	1.49
	14.70	17.76	73.72	0.00	0.0689	12.08	531.5	396.28	0.0781	655.8	11.804	21.51	13.82	1.49
	15.68	17.75	73.72	0.00	0.0688	12.06	530.7	395.73	0.0778	650.5	11.708	21.34	13.70	1.49
	16.69	17.74	73.69	0.00	0.0687	12.05	530.2	395.44	0.0776	647.5	11.655	21.25	13.63	1.49
	17.68	17.74	73.69	0.00	0.0688	12.06	530.5	395.66	0.0774	646.0	11.628	21.20	13.59	1.49
	18.69	17.74	73.72	0.00	0.0686	12.04	529.6	394.86	0.0770	641.2	11.541	21.03	13.48	1.49
	19.69	17.76	73.72	-0.00	0.0688	12.05	530.2	395.31	0.0755	630.0	11.340	20.67	13.21	1.49
	20.72	17.77	73.72	-0.00	0.0688	12.06	530.6	395.67	0.0735	598.2	10.768	19.63	12.42	1.49
	21.70	17.76	73.72	0.00	0.0690	12.10	532.5	397.06	0.0736	596.3	10.734	19.56	12.37	1.49
	22.71	17.74	73.72	-0.00	0.0689	12.08	531.7	396.43	0.0743	611.2	11.001	20.05	12.74	1.49
	23.77	17.75	73.72	-0.00	0.0688	12.06	530.6	395.62	0.0743	608.1	10.945	19.95	12.67	1.49
	24.71	17.75	73.72	-0.00	0.0688	12.07	531.2	396.07	0.0732	594.5	10.701	19.50	12.32	1.49
	25.69	17.75	73.72	0.00	0.0689	12.08	531.6	396.39	0.0741	604.1	10.874	19.82	12.57	1.49
	26.71	17.74	73.69	-0.00	0.0689	12.09	531.9	396.69	0.0743	606.4	10.916	19.90	12.62	1.49
	27.71	17.77	73.72	-0.00	0.0689	12.07	531.2	396.09	0.0742	608.6	10.955	19.97	12.68	1.49
	28.70	17.77	73.72	-0.00	0.0689	12.08	531.5	396.29	0.0742	605.4	10.897	19.86	12.60	1.49
	29.70	17.79	73.72	-0.00	0.0690	12.10	532.3	396.97	0.0744	608.3	10.950	19.96	12.68	1.49
	30.78	17.77	73.69	-0.00	0.0690	12.10	532.4	397.12	0.0747	612.5	11.025	20.10	12.78	1.49
	31.68	17.77	73.72	0.00	0.0689	12.08	531.4	396.30	0.0750	615.2	11.074	20.19	12.85	1.49
	32.70	17.77	73.72	0.00	0.0689	12.09	532.1	396.82	0.0748	614.5	11.061	20.16	12.83	1.49
	33.68	17.77	73.69	0.00	0.0689	12.10	532.3	397.06	0.0735	598.7	10.776	19.65	12.43	1.49
	34.69	17.77	73.72	0.00	0.0688	12.08	531.6	396.40	0.0735	597.3	10.752	19.60	12.40	1.49
	35.76	17.77	73.72	0.00	0.0689	12.08	531.4	396.24	0.0738	601.0	10.818	19.72	12.49	1.49
	36.69	17.79	73.69	0.00	0.0690	12.10	532.2	397.01	0.0742	605.7	10.903	19.88	12.61	1.49
	37.69	17.79	73.72	0.00	0.0690	12.10	532.3	396.97	0.0744	609.2	10.966	19.99	12.70	1.49
	38.69	17.81	73.69	0.00	0.0689	12.10	532.2	397.07	0.0740	605.3	10.896	19.87	12.60	1.49
	39.69	17.80	73.69	0.00	0.0690	12.12	533.1	397.71	0.0742	605.2	10.894	19.87	12.60	1.49
	40.69	17.79	73.72	0.00	0.0689	12.11	532.7	397.21	0.0741	606.3	10.913	19.89	12.62	1.49
	41.68	17.79	73.67	-0.00	0.0689	12.09	532.0	397.00	0.0739	602.7	10.849	19.79	12.53	1.49
	42.70	17.77	73.72	-0.00	0.0689	12.09	532.0	396.70	0.0737	601.3	10.824	19.73	12.50	1.49
	43.68	17.79	73.72	0.00	0.0689	12.07	531.3	396.17	0.0737	601.1	10.820	19.72	12.49	1.49
	44.69	17.80	73.72	0.00	0.0689	12.08	531.3	396.25	0.0741	604.2	10.875	19.82	12.57	1.49
	45.68	17.80	73.72	0.00	0.0688	12.09	531.9	396.66	0.0737	602.4	10.843	19.77	12.53	1.49
	46.69	17.79	73.69	0.00	0.0688	12.06	530.8	395.97	0.0740	602.1	10.838	19.76	12.52	1.49
	47.67	17.82	73.74	0.00	0.0688	12.08	531.6	396.34	0.0744	608.4	10.952	19.96	12.68	1.49
	48.69	17.82	73.72	-0.00	0.0688	12.07	531.1	396.10	0.0743	608.6	10.954	19.97	12.68	1.50
	49.69	17.82	73.69	0.00	0.0689	12.08	531.4	396.49	0.0740	605.7	10.902	19.88	12.61	1.49
	50.69	17.82	73.69	0.00	0.0688	12.06	530.5	395.82	0.0740	602.9	10.851	19.79	12.54	1.49
	51.70	17.82	73.69	-0.00	0.0687	12.04	529.7	395.17	0.0746	609.7	10.974	20.01	12.71	1.49
	52.71	17.82	73.69	-0.00	0.0686	11.99	527.6	393.64	0.0750	614.1	11.054	20.16	12.82	1.49
	53.70	17.84	73.72	0.00	0.0686	12.01	528.5	394.18	0.0744	608.5	10.953	19.97	12.68	1.49
	54.71	17.84	73.72	0.00	0.0686	12.01	528.5	394.19	0.0748	614.6	11.062	20.17	12.83	1.50
	55.69	17.84	73.72	0.00	0.0685	11.98	527.3	393.27	0.0749	615.2	11.073	20.19	12.85	1.50
	56.71	17.82	73.72	-0.00	0.0686	12.03	529.2	394.66	0.0746	611.5	11.007	20.07	12.76	1.49
	57.70	17.84	73.72	-0.00	0.0686	12.02	529.0	394.53	0.0747	612.7	11.028	20.11	12.79	1.49
	58.70	17.84	73.69	0.00	0.0686	12.02	528.9	394.59	0.0748	614.0	11.053	20.16	12.82	1.49
	59.70	17.84	73.72	-0.00	0.0686	12.02	529.0	394.58	0.0744	609.0	10.961	19.98	12.69	1.50
	60.72	17.84	73.69	-0.00	0.0685	12.00	528.1	394.00	0.0742	607.1	10.928	19.93	12.65	1.50
	61.70	17.84	73.69	-0.00	0.0685	11.98	527.2	393.34	0.0744	608.4	10.951	19.97	12.68	1.49
	62.70	17.85	73.69	0.00	0.0686	12.01	528.4	394.28	0.0745	608.9	10.960	19.99	12.69	1.50
	63.70	17.84	73.72	-0.00	0.0687	12.03	529.3	394.76	0.0746	610.8	10.994	20.04	12.74	1.49
	64.69	17.85	73.69	0.00	0.0685	12.01	528.4	394.28	0.0744	607.9	10.943	19.96	12.67	1.49
	65.69	17.84	73.69	0.00	0.0685	12.01	528.3	394.16	0.0753	616.7	11.101	20.25	12.89	1.49
	66.71	17.85	73.72	-0.00	0.0684	11.97	526.9	393.00	0.0753	620.3	11.165	20.36	12.98	1.50
	67.77	17.85	73.72	-0.00	0.0683	11.97	526.6	392.77	0.0751	615.0	11.070	20.18	12.84	1.50
	68.70	17.85	73.72	-0.00	0.0684	11.97	526.6	392.78	0.0759	625.7	11.262	20.53	13.11	1.50
	69.70	17.85	73.72	-0.00	0.0684	11.96	526.3	392.58	0.0763	631.6	11.369	20.73	13.25	1.50
	70.70	17.87	73.72	-0.00	0.0683	11.95	525.9	392.27	0.0759	626.9	11.284	20.58	13.14	1.50
	71.68	17.84	73.72	0.00	0.0684	11.98	527.0	393.03	0.0757	623.8	11.228	20.47	13.06	1.50
	72.70	17.85	73.67	0.00	0.0682	11.93	524.9	391.83	0.0765	633.1	11.395	20.79	13.29	1.50
	73.68	17.85	73.72	0.00	0.0683	11.94	525.3	391.80	0.0761	631.4	11.365	20.72	13.25	1.50
	74.77	17.89	73.72	-0.00	0.0684	11.97	526.5	392.78	0.0758	627.5	11.294	20.60	13.15	1.50
	75.75	17.89	73.72	0.00	0.0683	11.95	525.9	392.34	0.0756	621.7	11.191	20.41	13.01	1.50
	76.69	17.89	73.72	0.00	0.0682	11.90	523.7	390.70	0.0768	637.5	11.475	20.92	13.40	1.50
	77.69	17.89	73.72	-0.00	0.0680	11.90	523.8	390.73	0.0768	636.7	11.460	20.90	13.38	1.50
	78.70	17.89	73.69	-0.00	0.0679	11.88	522.5	389.92	0.0774	644.2	11.595	21.15	13.56	1.50
	79.69	17.89	73.75	0.00	0.0679	11.85	521.5	388.88	0.0779	651.3	11.724	21.37	13.73	1.50
	80.68	17.90	73.72	0.00	0.0679	11.86	521.9	389.31	0.0779	651.5	11.728	21.39	13.73	1.50
	81.76	17.89	73.72	-0.00	0.0680	11.89	523.0	390.16	0.0763	633.1	11.396	20.78	13.29	1.50
	82.70	17.90	73.72	0.00	0.0682	11.92	524.6	391.36	0.0748	615.1	11.073	20.19	12.85	1.50
	83.69	17.90	73.72	0.00	0.0682	11.92	524.6	391.36	0.0755	620.4	11.168	20.37	12.98	1.50
	84.69	17.90	73.69	-0.00	0.0681	11.91	524.0	391.02	0.0760	630.3	11.346	20.70	13.22	1.50
	85.69	17.90	73.72	0.00	0.0681	11.91	524.1	390.98	0.0756	623.6	11.225	20.47	13.06	1.50
	86.69	17.92	73.69	-0.00	0.0681	11.91	523.9	391.04	0.0767	634.3	11.417	20.83	13.32	1.50
	87.69	17.90	73.67	0.00	0.0682	11.90	523.7	390.98	0.0765	634.4	11.419	20.84	13.32	1.50
	88.78	17.90	73.72	-0.00	0.0681	11.91	523.9	390.82	0.0764	632.7	11.388	20.77	13.28	1.50
	89.70	17.92	73.69	-0.00	0.0680	11.89	523.2	390.46	0.0771	640.3	11.525	21.03	13.46	1.50
	90.68	17.92	73.69	0.00	0.0681	11.90	523.8	390.89	0.0772	642.9	11.572	21.11	13.53	1.50
	91.70	17.92	73.72	-0.00	0.0682	11.91	524.1	391.03	0.0768	638.0	11.483	20.94	13.41	1.50
	92.71	17.92	73.67	-0.00	0.0681	11.90	523.5	390.81	0.0762	632.9	11.393	20.79	13.29	1.50
	93.69	17.94	73.72	0.00	0.0679	11.86	521.7	389.21	0.0763	632.3	11.382	20.76	13.27	1.50
	94.68	17.92	73.72	0.00	0.0674	11.79	518.8	387.07	0.0784	645.9	11.625	21.20	13.60	1.50
	95.71	17.94	73.69	-0.00	0.0673	11.70	514.7	384.14	0.0795	673.7	12.127	22.12	14.25	1.50
	96.67	17.92	73.72	0.00	0.0673	11.73	516.1	385.07	0.0805	679.9	12.237	22.32	14.39	1.50
	97.69	17.90	73.72	-0.00	0.0672	11.68	513.9	383.38	0.0801	683.2	12.297	22.42	14.46	1.50
	98.69	17.92	73.72	-0.00	0.0674	11.75	517.1	385.79	0.0797	671.1	12.081	22.03	14.19	1.50
	99.70	17.94	73.69	-0.00	0.0673	11.71	515.4	384.68	0.0804	683.0	12.295	22.43	14.46	1.50
	100.68	17.94	73.69	-0.00	0.0673	11.70	515.0	384.40	0.0811	695.7	12.522	22.85	14.75	1.50
	101.70	17.94	73.72	-0.00	0.0671	11.67	513.7	383.24	0.0814	698.3	12.569	22.92	14.80	1.50
	102.77	17.94	73.72	-0.00	0.0673	11.71	515.3	384.44	0.0811	693.7	12.486	22.77	14.70	1.50
	103.69	17.94	73.69	-0.00	0.0673	11.72	515.7	384.94	0.0811	691.8	12.453	22.72	14.66	1.50
	104.68	17.95	73.72	0.00	0.0673	11.71	515.2	384.38	0.0807	691.3	12.444	22.70	14.65	1.50
	105.67	17.94	73.72	0.00	0.0676	11.78	518.2	386.66	0.0796	674.1	12.135	22.13	14.26	1.50
	106.67	17.94	73.72	0.00	0.0678	11.83	520.5	388.35	0.0791	666.1	11.989	21.87	14.07	1.50
	107.70	17.94	73.69	0.00	0.0678	11.83	520.4	388.44	0.0794	670.4	12.068	22.02	14.17	1.50
	108.70	17.97	73.69	-0.00	0.0679	11.86	521.8	389.47	0.0792	668.7	12.036	21.96	14.14	1.50
	109.70	17.95	73.72	-0.00	0.0680	11.87	522.5	389.85	0.0786	661.0	11.898	21.70	13.96	1.50
	110.70	17.95	73.69	0.00	0.0680	11.88	522.7	390.15	0.0785	660.6	11.891	21.70	13.95	1.50
	111.71	17.97	73.72	-0.00	0.0681	11.89	523.0	390.27	0.0784	658.8	11.858	21.63	13.91	1.50
	112.76	17.97	73.72	0.00	0.0681	11.92	524.3	391.26	0.0775	649.0	11.683	21.31	13.68	1.50
	113.69	17.97	73.74	0.00	0.0679	11.88	522.5	389.77	0.0772	642.9	11.573	21.10	13.53	1.50
	114.69	17.99	73.72	0.00	0.0678	11.84	520.9	388.69	0.0774	643.3	11.579	21.12	13.54	1.50
	115.69	18.00	73.69	0.00	0.0677	11.81	519.7	388.00	0.0783	653.6	11.764	21.47	13.78	1.50
	116.69	18.02	73.72	0.00	0.0677	11.81	519.5	387.70	0.0788	662.8	11.930	21.77	14.00	1.50
	117.69	18.03	73.72	0.00	0.0678	11.82	519.9	388.03	0.0788	663.5	11.942	21.79	14.02	1.50
	118.69	18.04	73.69	0.00	0.0679	11.84	521.0	388.98	0.0798	674.9	12.149	22.17	14.28	1.50
	119.70	18.04	73.69	-0.00	0.0678	11.84	521.1	389.07	0.0800	676.8	12.182	22.23	14.32	1.50
	120.68	18.03	73.72	0.00	0.0679	11.85	521.6	389.31	0.0802	680.9	12.256	22.36	14.42	1.50
	121.76	18.04	73.72	0.00	0.0677	11.81	519.8	387.97	0.0800	678.9	12.221	22.30	14.37	1.50
	122.68	18.03	73.72	-0.00	0.0678	11.84	521.1	388.90	0.0797	674.3	12.137	22.14	14.27	1.50
