Jul 25 2015 at 16:30:09
Frequency: 1.00Hz.
CO2
Zero:  Value:0.95  Date:18 Mar 2005	 at 07:22:33	
Span:  Value:1.00  Date:18 Mar 2005	 at 07:25:09	
H2O
Zero:  Value:0.71  Date:18 Mar 2005	 at 07:52:31	
Span:  Value:0.99  Date:18 Mar 2005	 at 11:44:01	
	Relative Time	Temperature	Pressure	Aux Input	CO2 Absorptance	CO2 mmol/m3	CO2 mg/m3	CO2 umol/mol	H2O Absorptance	H2O mmol/m3	H2O g/m3	H2O mmol/mol	H2O(°C)	Cooler Voltage
	0.23	33.15	67.70	0.00	0.0624	10.92	480.4	410.72	0.0780	672.3	12.101	25.29	15.01	1.69
	1.25	33.18	67.68	0.00	0.0620	10.80	475.0	406.31	0.0790	699.4	12.590	26.32	15.62	1.69
	2.31	33.19	67.68	0.00	0.0622	10.84	477.0	407.99	0.0788	692.7	12.469	26.07	15.47	1.68
	3.23	33.18	67.75	0.00	0.0623	10.85	477.4	407.86	0.0785	691.7	12.451	26.00	15.45	1.69
	4.24	33.18	67.68	0.00	0.0622	10.85	477.5	408.38	0.0788	690.3	12.425	25.98	15.42	1.69
	5.24	33.16	67.68	-0.00	0.0627	10.93	480.9	411.26	0.0774	679.3	12.227	25.56	15.17	1.69
	6.24	33.19	67.70	0.00	0.0631	11.06	486.7	416.13	0.0753	647.4	11.653	24.36	14.42	1.69
	7.24	33.18	67.70	0.00	0.0628	10.99	483.6	413.46	0.0758	651.8	11.732	24.52	14.53	1.69
	8.24	33.14	67.68	0.00	0.0623	10.89	479.2	409.81	0.0770	665.4	11.977	25.04	14.85	1.68
	9.24	33.12	67.70	-0.00	0.0627	10.94	481.2	411.36	0.0751	651.1	11.720	24.49	14.51	1.69
	10.23	33.12	67.72	0.00	0.0628	10.97	482.5	412.30	0.0736	623.4	11.221	23.44	13.84	1.68
	11.23	33.12	67.73	0.00	0.0628	10.97	482.6	412.41	0.0744	637.5	11.474	23.97	14.18	1.69
	12.21	33.17	67.70	0.00	0.0623	10.91	480.2	410.59	0.0760	648.6	11.675	24.40	14.45	1.69
	13.24	33.14	67.70	0.00	0.0625	10.92	480.4	410.67	0.0748	644.5	11.601	24.24	14.35	1.69
	14.24	33.17	67.68	0.00	0.0627	10.95	481.7	411.97	0.0740	639.6	11.513	24.07	14.24	1.69
	15.24	33.16	67.70	0.00	0.0627	10.98	483.1	412.99	0.0732	622.1	11.198	23.40	13.81	1.69
	16.24	33.14	67.70	0.00	0.0627	10.97	482.5	412.51	0.0734	620.4	11.168	23.34	13.76	1.68
	17.24	33.13	67.68	0.00	0.0629	11.01	484.3	414.19	0.0717	600.3	10.806	22.59	13.26	1.69
	18.24	33.16	67.70	0.00	0.0629	11.02	484.7	414.39	0.0716	598.7	10.776	22.52	13.22	1.69
	19.25	33.14	67.70	-0.00	0.0630	11.03	485.3	414.87	0.0717	599.6	10.792	22.55	13.24	1.69
	20.25	33.16	67.68	-0.00	0.0630	11.04	485.7	415.39	0.0721	604.8	10.887	22.76	13.37	1.69
	21.25	33.16	67.70	-0.00	0.0631	11.05	486.2	415.65	0.0715	598.6	10.775	22.52	13.22	1.69
	22.23	33.13	67.65	-0.00	0.0629	11.02	484.8	414.68	0.0713	594.1	10.694	22.36	13.10	1.69
	23.25	33.20	67.67	0.00	0.0628	11.00	483.9	413.92	0.0714	594.9	10.708	22.39	13.12	1.69
	24.24	33.19	67.70	-0.00	0.0627	10.99	483.4	413.35	0.0718	601.5	10.826	22.63	13.29	1.69
	25.23	33.19	67.70	0.00	0.0627	10.95	481.9	412.03	0.0719	603.0	10.854	22.68	13.33	1.69
	26.22	33.15	67.70	0.00	0.0627	10.97	482.9	412.80	0.0719	605.0	10.889	22.76	13.38	1.69
	27.24	33.19	67.68	0.00	0.0626	10.96	482.3	412.48	0.0714	596.6	10.739	22.45	13.17	1.69
	28.32	33.13	67.73	0.00	0.0627	10.96	482.1	411.96	0.0714	595.1	10.712	22.37	13.13	1.69
	29.23	33.14	67.68	0.00	0.0627	10.96	482.1	412.31	0.0709	591.6	10.649	22.26	13.03	1.69
	30.23	33.16	67.68	0.00	0.0627	10.95	481.9	412.10	0.0710	591.0	10.639	22.24	13.02	1.69
	31.25	33.12	67.71	0.00	0.0627	10.98	483.0	412.86	0.0710	591.6	10.649	22.25	13.03	1.69
	32.23	33.16	67.68	0.00	0.0627	10.97	482.9	412.99	0.0709	591.1	10.640	22.24	13.02	1.69
	33.24	33.12	67.70	-0.00	0.0629	11.01	484.3	413.96	0.0707	589.7	10.615	22.18	12.98	1.69
	34.24	33.10	67.70	0.00	0.0629	11.02	484.7	414.31	0.0706	586.1	10.550	22.04	12.89	1.69
	35.24	33.14	67.68	0.00	0.0629	11.01	484.5	414.33	0.0707	587.3	10.572	22.10	12.92	1.69
	36.30	33.10	67.68	0.00	0.0629	11.01	484.5	414.25	0.0706	585.8	10.544	22.04	12.88	1.69
	37.24	33.12	67.70	-0.00	0.0629	11.01	484.4	414.11	0.0714	596.3	10.733	22.43	13.15	1.69
	38.25	33.19	67.67	-0.00	0.0628	11.00	483.8	413.84	0.0713	595.1	10.711	22.40	13.13	1.69
	39.23	33.14	67.70	0.00	0.0629	11.00	484.2	413.94	0.0718	599.7	10.794	22.56	13.24	1.69
	40.23	33.21	67.70	0.00	0.0632	11.05	486.3	415.79	0.0735	616.2	11.092	23.18	13.66	1.69
	41.25	33.20	67.65	-0.00	0.0630	11.03	485.4	415.33	0.0720	601.7	10.830	22.65	13.30	1.69
	42.25	33.21	67.68	0.00	0.0632	11.04	485.6	415.37	0.0726	601.8	10.833	22.65	13.30	1.69
	43.24	33.18	67.70	-0.00	0.0629	11.02	484.8	414.47	0.0716	597.0	10.745	22.46	13.17	1.69
	44.24	33.20	67.68	-0.00	0.0630	11.03	485.3	415.09	0.0721	602.3	10.841	22.67	13.31	1.69
	45.24	33.18	67.68	-0.00	0.0632	11.09	488.0	417.42	0.0731	618.5	11.132	23.27	13.72	1.69
	46.22	33.18	67.72	0.00	0.0632	11.08	487.4	416.61	0.0724	608.7	10.956	22.89	13.47	1.69
	47.25	33.21	67.65	-0.00	0.0628	11.02	484.8	414.89	0.0711	598.3	10.769	22.53	13.21	1.69
	48.24	33.21	67.67	0.00	0.0628	11.00	483.9	413.93	0.0709	590.5	10.629	22.23	13.01	1.69
	49.25	33.20	67.70	-0.00	0.0630	11.01	484.6	414.40	0.0716	595.4	10.718	22.40	13.14	1.69
	50.23	33.15	67.65	0.00	0.0631	11.06	486.8	416.42	0.0723	606.6	10.920	22.84	13.42	1.69
	51.25	33.20	67.70	-0.00	0.0631	11.05	486.4	415.86	0.0720	604.6	10.883	22.75	13.37	1.69
	52.23	33.18	67.70	0.00	0.0631	11.03	485.5	415.12	0.0720	600.6	10.810	22.59	13.27	1.69
	53.23	33.17	67.70	0.00	0.0630	11.03	485.3	414.91	0.0721	605.0	10.890	22.76	13.38	1.69
	54.24	33.23	67.68	0.00	0.0629	11.02	484.8	414.73	0.0714	597.8	10.761	22.50	13.20	1.69
	55.24	33.17	67.70	0.00	0.0630	11.02	484.9	414.59	0.0716	598.7	10.777	22.52	13.22	1.69
	56.32	33.16	67.68	-0.00	0.0630	11.04	485.8	415.49	0.0715	598.8	10.779	22.54	13.22	1.69
	57.22	33.15	67.70	0.00	0.0631	11.05	486.2	415.60	0.0726	609.7	10.974	22.93	13.50	1.69
	58.25	33.10	67.70	-0.00	0.0630	11.04	485.9	415.36	0.0716	599.4	10.789	22.54	13.23	1.70
	59.23	33.10	67.68	0.00	0.0631	11.05	486.2	415.73	0.0718	603.6	10.865	22.71	13.34	1.70
	60.23	33.10	67.68	-0.00	0.0630	11.04	485.8	415.40	0.0718	602.9	10.853	22.68	13.32	1.69
	61.23	33.08	67.70	0.00	0.0630	11.04	485.6	415.06	0.0719	600.3	10.805	22.58	13.25	1.69
	62.23	33.08	67.68	0.00	0.0633	11.09	487.9	417.18	0.0730	613.7	11.046	23.09	13.59	1.69
	63.24	33.12	67.70	0.00	0.0631	11.07	487.0	416.27	0.0723	609.7	10.975	22.93	13.50	1.69
	64.23	33.15	67.70	0.00	0.0632	11.08	487.7	416.96	0.0728	616.0	11.087	23.17	13.65	1.70
	65.22	33.15	67.67	0.00	0.0632	11.09	487.8	417.23	0.0726	613.1	11.036	23.07	13.58	1.70
	66.24	33.16	67.70	0.00	0.0632	11.10	488.2	417.41	0.0728	615.7	11.082	23.16	13.65	1.70
	67.30	33.19	67.70	0.00	0.0631	11.07	487.1	416.48	0.0725	611.6	11.009	23.01	13.55	1.70
	68.22	33.21	67.70	0.00	0.0632	11.08	487.7	417.00	0.0725	612.0	11.016	23.03	13.56	1.70
	69.23	33.22	67.68	0.00	0.0634	11.11	488.6	417.96	0.0733	616.8	11.103	23.21	13.68	1.70
	70.25	33.18	67.68	-0.00	0.0631	11.10	488.3	417.67	0.0728	617.5	11.115	23.24	13.69	1.70
	71.25	33.20	67.70	0.00	0.0630	11.05	486.2	415.70	0.0724	609.7	10.975	22.94	13.50	1.70
	72.25	33.16	67.70	-0.00	0.0632	11.07	487.0	416.35	0.0729	614.6	11.062	23.12	13.62	1.70
	73.23	33.19	67.70	0.00	0.0631	11.06	486.5	415.97	0.0725	610.3	10.986	22.96	13.51	1.70
	74.24	33.21	67.70	-0.00	0.0632	11.06	486.8	416.24	0.0727	612.4	11.024	23.04	13.57	1.70
	75.24	33.18	67.70	-0.00	0.0632	11.08	487.5	416.80	0.0727	613.9	11.050	23.09	13.60	1.70
	76.24	33.17	67.70	0.00	0.0631	11.07	486.9	416.32	0.0726	612.7	11.028	23.05	13.57	1.70
	77.24	33.20	67.68	0.00	0.0631	11.07	487.0	416.56	0.0728	614.0	11.052	23.11	13.61	1.70
	78.23	33.20	67.72	0.00	0.0632	11.07	487.0	416.27	0.0729	615.7	11.082	23.16	13.65	1.70
	79.25	33.21	67.70	-0.00	0.0631	11.05	486.3	415.81	0.0725	610.2	10.984	22.96	13.51	1.70
	80.23	33.25	67.68	0.00	0.0632	11.08	487.6	417.16	0.0734	619.4	11.149	23.31	13.74	1.70
	81.22	33.25	67.68	0.00	0.0634	11.12	489.2	418.53	0.0738	628.0	11.304	23.64	13.96	1.70
	82.23	33.20	67.68	0.00	0.0634	11.11	488.8	418.08	0.0740	625.3	11.256	23.53	13.89	1.70
	83.24	33.25	67.70	0.00	0.0636	11.15	490.6	419.54	0.0750	640.1	11.522	24.09	14.25	1.70
	84.24	33.25	67.68	-0.00	0.0635	11.14	490.3	419.43	0.0746	634.7	11.424	23.89	14.12	1.70
	85.22	33.25	67.70	0.00	0.0634	11.15	490.4	419.42	0.0740	633.0	11.394	23.82	14.08	1.70
	86.24	33.23	67.70	0.00	0.0636	11.16	491.1	419.96	0.0749	640.1	11.521	24.08	14.25	1.70
	87.31	33.22	67.70	-0.00	0.0633	11.10	488.4	417.65	0.0738	621.1	11.180	23.37	13.79	1.70
	88.30	33.25	67.70	0.00	0.0633	11.10	488.3	417.60	0.0735	620.6	11.170	23.35	13.77	1.70
	89.23	33.23	67.68	-0.00	0.0635	11.16	491.1	420.06	0.0745	634.9	11.428	23.90	14.12	1.70
	90.23	33.22	67.68	0.00	0.0633	11.11	488.7	418.03	0.0737	625.0	11.250	23.52	13.88	1.70
	91.25	33.25	67.70	0.00	0.0635	11.14	490.1	419.12	0.0743	631.2	11.361	23.75	14.03	1.70
	92.23	33.25	67.68	0.00	0.0635	11.14	490.3	419.47	0.0741	629.0	11.323	23.68	13.98	1.70
	93.24	33.25	67.70	-0.00	0.0634	11.12	489.4	418.57	0.0738	626.0	11.268	23.56	13.91	1.70
	94.24	33.22	67.70	0.00	0.0635	11.14	490.0	418.97	0.0741	630.5	11.349	23.72	14.02	1.70
	95.24	33.25	67.68	0.00	0.0635	11.16	490.9	419.91	0.0743	633.4	11.402	23.84	14.09	1.70
	96.22	33.25	67.65	0.00	0.0636	11.17	491.5	420.63	0.0749	637.6	11.477	24.01	14.19	1.70
	97.24	33.27	67.68	-0.00	0.0636	11.15	490.7	419.86	0.0744	634.3	11.418	23.88	14.11	1.70
	98.31	33.23	67.68	0.00	0.0636	11.18	491.9	420.75	0.0751	640.5	11.529	24.11	14.26	1.70
	99.23	33.25	67.68	0.00	0.0636	11.17	491.3	420.28	0.0746	635.7	11.442	23.93	14.14	1.70
	100.25	33.24	67.70	-0.00	0.0638	11.23	494.0	422.44	0.0755	653.8	11.768	24.60	14.58	1.70
	101.23	33.25	67.68	-0.00	0.0638	11.21	493.3	422.03	0.0755	647.1	11.649	24.36	14.42	1.70
	102.23	33.27	67.68	0.00	0.0636	11.19	492.4	421.24	0.0749	642.3	11.561	24.18	14.30	1.70
	103.23	33.29	67.72	0.00	0.0638	11.20	492.7	421.26	0.0752	642.4	11.563	24.17	14.31	1.70
	104.22	33.27	67.68	0.00	0.0637	11.18	491.8	420.74	0.0750	640.9	11.536	24.12	14.27	1.70
	105.32	33.27	67.68	0.00	0.0635	11.16	491.0	420.03	0.0745	636.3	11.454	23.95	14.16	1.71
	106.25	33.29	67.68	-0.00	0.0636	11.15	490.6	419.72	0.0743	632.4	11.382	23.81	14.07	1.70
	107.25	33.20	67.70	0.00	0.0638	11.21	493.0	421.59	0.0751	644.8	11.606	24.26	14.36	1.70
	108.23	33.24	67.68	-0.00	0.0636	11.17	491.5	420.48	0.0746	636.9	11.464	23.97	14.17	1.70
	109.31	33.22	67.70	0.00	0.0636	11.18	491.8	420.56	0.0746	639.9	11.519	24.08	14.25	1.71
	110.25	33.21	67.68	-0.00	0.0638	11.21	493.2	421.86	0.0756	648.2	11.667	24.39	14.44	1.71
	111.31	33.20	67.70	-0.00	0.0637	11.18	492.1	420.81	0.0750	639.7	11.514	24.07	14.24	1.71
	112.23	33.23	67.70	-0.00	0.0638	11.22	493.8	422.24	0.0756	652.1	11.738	24.54	14.54	1.71
	113.24	33.20	67.70	-0.00	0.0639	11.24	494.6	422.92	0.0757	652.7	11.749	24.56	14.55	1.71
	114.26	33.20	67.68	-0.00	0.0639	11.23	494.1	422.60	0.0756	650.3	11.705	24.47	14.49	1.71
	115.24	33.25	67.68	0.00	0.0640	11.25	495.0	423.47	0.0761	654.8	11.787	24.65	14.60	1.71
	116.22	33.25	67.68	0.00	0.0640	11.27	495.7	424.07	0.0760	658.3	11.850	24.78	14.69	1.71
	117.22	33.29	67.65	0.00	0.0638	11.22	493.7	422.57	0.0752	646.4	11.635	24.34	14.40	1.71
	118.23	33.34	67.68	0.00	0.0638	11.20	493.0	421.89	0.0754	645.4	11.618	24.30	14.38	1.71
	119.23	33.30	67.70	0.00	0.0636	11.20	492.6	421.37	0.0752	649.1	11.684	24.43	14.47	1.71
	120.23	33.38	67.70	0.00	0.0637	11.18	491.8	420.75	0.0751	642.6	11.566	24.19	14.32	1.71
	121.23	33.34	67.68	0.00	0.0636	11.18	492.1	421.11	0.0750	645.2	11.613	24.29	14.38	1.71
