Jul 25 2015 at 9:14:55
Frequency: 1.00Hz.
CO2
Zero:  Value:0.95  Date:18 Mar 2005	 at 07:22:33	
Span:  Value:1.00  Date:18 Mar 2005	 at 07:25:09	
H2O
Zero:  Value:0.71  Date:18 Mar 2005	 at 07:52:31	
Span:  Value:0.99  Date:18 Mar 2005	 at 11:44:01	
	Relative Time	Temperature	Pressure	Aux Input	CO2 Absorptance	CO2 mmol/m3	CO2 mg/m3	CO2 umol/mol	H2O Absorptance	H2O mmol/m3	H2O g/m3	H2O mmol/mol	H2O(°C)	Cooler Voltage
	0.36	12.99	67.79	0.00	0.0630	11.04	485.9	387.53	0.0558	416.9	7.503	14.63	6.80	1.46
	1.36	13.01	67.81	-0.00	0.0624	10.90	479.7	382.52	0.0575	433.2	7.798	15.20	7.36	1.47
	2.36	13.03	67.81	0.00	0.0622	10.87	478.3	381.44	0.0581	439.6	7.913	15.43	7.57	1.47
	3.37	13.01	67.81	-0.00	0.0628	10.92	480.5	383.20	0.0580	442.1	7.959	15.51	7.66	1.46
	4.35	13.03	67.83	0.00	0.0628	11.02	484.7	386.42	0.0579	438.5	7.893	15.38	7.54	1.47
	5.35	13.01	67.81	0.00	0.0621	10.84	477.1	380.39	0.0585	444.7	8.005	15.60	7.74	1.47
	6.43	13.01	67.81	0.00	0.0620	10.81	475.5	379.13	0.0586	447.2	8.050	15.69	7.82	1.46
	7.35	13.01	67.81	-0.00	0.0626	10.94	481.4	383.88	0.0582	443.0	7.973	15.54	7.68	1.47
	8.36	13.01	67.83	-0.00	0.0623	10.87	478.3	381.25	0.0586	445.7	8.023	15.63	7.77	1.47
	9.36	13.01	67.81	-0.00	0.0620	10.80	475.2	378.95	0.0590	450.9	8.117	15.82	7.94	1.47
	10.36	13.03	67.81	-0.00	0.0619	10.79	474.6	378.46	0.0592	453.2	8.157	15.90	8.02	1.47
	11.37	13.04	67.81	-0.00	0.0619	10.79	474.9	378.71	0.0592	454.1	8.175	15.94	8.05	1.47
	12.36	13.04	67.81	-0.00	0.0622	10.82	476.1	379.65	0.0588	451.5	8.126	15.84	7.96	1.47
	13.37	13.04	67.81	-0.00	0.0624	10.89	479.2	382.12	0.0585	447.0	8.047	15.69	7.82	1.47
	14.35	13.06	67.81	0.00	0.0624	10.90	479.4	382.39	0.0584	446.2	8.032	15.66	7.79	1.47
	15.35	13.06	67.83	-0.00	0.0627	10.94	481.3	383.70	0.0584	445.4	8.018	15.62	7.77	1.47
	16.36	13.04	67.81	-0.00	0.0627	10.97	482.7	384.94	0.0579	439.0	7.903	15.41	7.55	1.47
	17.44	13.04	67.79	-0.00	0.0631	11.03	485.2	387.08	0.0570	430.0	7.739	15.09	7.25	1.47
	18.44	13.04	67.81	-0.00	0.0629	11.01	484.6	386.46	0.0576	434.7	7.825	15.25	7.41	1.47
	19.36	13.06	67.83	0.00	0.0624	10.91	480.2	382.80	0.0582	442.3	7.961	15.51	7.66	1.47
	20.44	13.04	67.83	0.00	0.0617	10.76	473.5	377.52	0.0587	446.7	8.041	15.67	7.81	1.47
	21.36	13.04	67.83	0.00	0.0615	10.72	471.5	375.85	0.0589	449.4	8.090	15.76	7.90	1.47
	22.42	13.07	67.83	0.00	0.0615	10.68	469.9	374.60	0.0590	451.5	8.126	15.84	7.97	1.47
	23.35	13.06	67.81	-0.00	0.0616	10.72	471.7	376.19	0.0588	449.7	8.094	15.78	7.91	1.47
	24.37	13.07	67.81	-0.00	0.0617	10.73	472.2	376.65	0.0585	447.7	8.059	15.71	7.84	1.47
	25.35	13.08	67.81	0.00	0.0618	10.74	472.6	376.98	0.0586	447.5	8.054	15.70	7.83	1.47
	26.35	13.09	67.81	-0.00	0.0618	10.77	473.7	377.87	0.0588	448.8	8.079	15.75	7.88	1.47
	27.35	13.09	67.81	0.00	0.0617	10.75	472.8	377.16	0.0586	448.0	8.065	15.72	7.85	1.47
	28.38	13.09	67.81	-0.00	0.0621	10.80	475.3	379.15	0.0582	443.0	7.974	15.55	7.69	1.47
	29.36	13.09	67.81	0.00	0.0620	10.81	475.6	379.32	0.0579	440.7	7.932	15.47	7.61	1.47
	30.36	13.11	67.83	0.00	0.0622	10.83	476.7	380.12	0.0573	435.0	7.829	15.26	7.42	1.47
	31.37	13.09	67.81	0.00	0.0622	10.84	477.1	380.55	0.0574	434.1	7.813	15.23	7.39	1.47
	32.43	13.09	67.81	-0.00	0.0623	10.88	478.8	381.89	0.0573	433.8	7.809	15.23	7.38	1.47
	33.35	13.08	67.83	-0.00	0.0624	10.88	478.8	381.73	0.0569	429.2	7.726	15.06	7.22	1.47
	34.37	13.09	67.81	-0.00	0.0624	10.89	479.0	382.05	0.0569	428.8	7.718	15.05	7.21	1.47
	35.37	13.12	67.79	0.00	0.0623	10.87	478.1	381.52	0.0569	428.1	7.707	15.03	7.19	1.47
	36.36	13.09	67.79	-0.00	0.0622	10.86	477.9	381.35	0.0569	429.9	7.738	15.09	7.25	1.47
	37.36	13.11	67.81	-0.00	0.0623	10.86	477.7	381.05	0.0570	430.5	7.749	15.11	7.27	1.47
	38.36	13.12	67.81	0.00	0.0622	10.86	477.7	381.05	0.0570	430.3	7.745	15.10	7.26	1.47
	39.36	13.12	67.81	-0.00	0.0622	10.85	477.6	381.00	0.0570	429.8	7.736	15.09	7.25	1.47
	40.36	13.14	67.83	0.00	0.0622	10.85	477.5	380.77	0.0568	428.2	7.708	15.03	7.19	1.47
	41.42	13.14	67.81	-0.00	0.0623	10.86	478.0	381.32	0.0567	427.3	7.691	15.00	7.16	1.47
	42.39	13.16	67.81	-0.00	0.0621	10.83	476.6	380.22	0.0564	424.8	7.647	14.91	7.08	1.47
	43.37	13.14	67.78	0.00	0.0621	10.83	476.3	380.15	0.0567	425.8	7.664	14.95	7.11	1.47
	44.35	13.16	67.81	0.00	0.0621	10.83	476.6	380.24	0.0568	428.2	7.708	15.03	7.20	1.47
	45.35	13.14	67.81	-0.00	0.0620	10.82	475.9	379.63	0.0568	428.4	7.711	15.04	7.20	1.47
	46.38	13.17	67.81	-0.00	0.0621	10.82	476.0	379.76	0.0568	427.7	7.698	15.01	7.18	1.47
	47.36	13.14	67.79	-0.00	0.0620	10.81	475.6	379.53	0.0568	427.5	7.695	15.01	7.17	1.47
	48.36	13.14	67.78	-0.00	0.0620	10.80	475.4	379.38	0.0567	427.9	7.702	15.03	7.18	1.47
	49.36	13.16	67.81	-0.00	0.0620	10.81	475.8	379.65	0.0568	427.8	7.700	15.02	7.18	1.47
	50.37	13.17	67.81	-0.00	0.0620	10.81	475.7	379.58	0.0566	426.8	7.682	14.98	7.15	1.47
	51.36	13.16	67.81	0.00	0.0619	10.79	474.7	378.75	0.0566	425.2	7.654	14.93	7.09	1.47
	52.34	13.16	67.81	0.00	0.0620	10.80	475.1	379.05	0.0566	425.7	7.662	14.94	7.11	1.47
	53.35	13.17	67.83	0.00	0.0620	10.80	475.0	378.86	0.0566	425.5	7.659	14.93	7.10	1.47
	54.37	13.14	67.76	0.00	0.0619	10.80	475.1	379.27	0.0566	426.5	7.677	14.98	7.14	1.47
	55.35	13.17	67.81	-0.00	0.0620	10.79	474.9	378.89	0.0566	425.9	7.667	14.95	7.12	1.47
	56.35	13.17	67.81	-0.00	0.0620	10.80	475.1	379.04	0.0565	425.6	7.662	14.94	7.11	1.47
	57.38	13.16	67.81	-0.00	0.0619	10.80	475.1	379.03	0.0565	424.4	7.639	14.90	7.06	1.47
	58.44	13.19	67.79	0.00	0.0620	10.79	474.9	379.04	0.0565	424.0	7.632	14.89	7.05	1.47
	59.34	13.20	67.81	0.00	0.0620	10.81	475.5	379.40	0.0566	425.9	7.667	14.95	7.12	1.47
	60.36	13.20	67.81	0.00	0.0620	10.80	475.4	379.31	0.0566	425.9	7.666	14.95	7.12	1.47
	61.37	13.19	67.83	0.00	0.0619	10.79	474.8	378.68	0.0565	424.9	7.649	14.91	7.08	1.47
	62.35	13.19	67.83	-0.00	0.0619	10.79	474.7	378.63	0.0565	424.7	7.645	14.91	7.08	1.47
	63.35	13.20	67.79	0.00	0.0621	10.81	475.5	379.55	0.0567	426.1	7.670	14.97	7.13	1.47
	64.35	13.21	67.79	0.00	0.0620	10.81	475.4	379.50	0.0566	425.7	7.663	14.95	7.11	1.47
	65.36	13.21	67.78	0.00	0.0619	10.79	474.9	379.09	0.0566	425.3	7.655	14.94	7.10	1.47
	66.35	13.21	67.81	0.00	0.0620	10.79	474.8	378.87	0.0565	425.1	7.652	14.93	7.09	1.47
	67.35	13.21	67.83	0.00	0.0620	10.79	474.9	378.78	0.0565	425.4	7.657	14.93	7.10	1.47
	68.34	13.24	67.81	0.00	0.0619	10.79	475.0	379.05	0.0565	425.0	7.649	14.92	7.09	1.47
	69.37	13.24	67.81	0.00	0.0620	10.79	474.9	378.99	0.0566	425.1	7.653	14.93	7.09	1.47
	70.36	13.25	67.83	0.00	0.0620	10.79	474.8	378.82	0.0565	424.7	7.645	14.91	7.08	1.47
	71.36	13.22	67.79	0.00	0.0619	10.79	474.5	378.81	0.0565	424.6	7.642	14.91	7.07	1.47
	72.35	13.24	67.78	0.00	0.0619	10.79	474.8	379.01	0.0565	425.3	7.655	14.94	7.10	1.47
	73.37	13.24	67.81	-0.00	0.0619	10.79	474.8	378.95	0.0566	425.7	7.662	14.95	7.11	1.47
	74.35	13.25	67.81	-0.00	0.0620	10.79	474.9	379.01	0.0567	425.8	7.665	14.95	7.12	1.47
	75.36	13.25	67.81	-0.00	0.0620	10.80	475.0	379.06	0.0566	426.1	7.669	14.96	7.13	1.48
	76.36	13.27	67.83	0.00	0.0619	10.80	475.1	379.05	0.0566	426.4	7.675	14.97	7.14	1.48
	77.42	13.22	67.81	0.00	0.0619	10.80	475.1	379.11	0.0566	426.1	7.671	14.96	7.13	1.48
	78.34	13.25	67.81	0.00	0.0620	10.79	474.8	378.96	0.0566	426.3	7.674	14.97	7.14	1.48
	79.36	13.27	67.83	0.00	0.0620	10.79	474.8	378.77	0.0566	425.7	7.662	14.94	7.11	1.48
	80.36	13.27	67.81	0.00	0.0619	10.79	474.7	378.89	0.0566	425.2	7.653	14.93	7.10	1.48
	81.37	13.25	67.81	-0.00	0.0619	10.79	474.8	378.92	0.0566	425.2	7.654	14.93	7.10	1.48
	82.35	13.28	67.81	0.00	0.0619	10.79	474.5	378.78	0.0566	425.6	7.661	14.95	7.11	1.48
	83.35	13.28	67.79	0.00	0.0619	10.78	474.2	378.60	0.0566	425.6	7.662	14.95	7.11	1.48
	84.35	13.27	67.81	0.00	0.0619	10.77	474.1	378.34	0.0566	426.0	7.668	14.96	7.12	1.48
	85.35	13.30	67.81	-0.00	0.0618	10.78	474.2	378.52	0.0566	425.9	7.666	14.96	7.12	1.48
	86.36	13.27	67.79	0.00	0.0618	10.78	474.4	378.78	0.0567	426.0	7.669	14.97	7.13	1.48
	87.34	13.29	67.83	0.00	0.0619	10.79	474.6	378.70	0.0567	426.3	7.674	14.97	7.14	1.48
	88.44	13.29	67.81	-0.00	0.0619	10.79	474.7	378.85	0.0567	426.6	7.679	14.98	7.15	1.48
	89.36	13.30	67.81	-0.00	0.0619	10.78	474.4	378.68	0.0567	426.7	7.680	14.99	7.15	1.48
	90.36	13.29	67.79	0.00	0.0619	10.77	473.8	378.28	0.0566	425.9	7.667	14.96	7.12	1.48
	91.37	13.30	67.78	-0.00	0.0618	10.76	473.4	378.04	0.0565	425.4	7.658	14.95	7.11	1.48
	92.35	13.30	67.81	0.00	0.0617	10.76	473.3	377.84	0.0566	425.3	7.655	14.94	7.10	1.48
	93.37	13.30	67.81	-0.00	0.0618	10.75	472.9	377.50	0.0566	425.2	7.654	14.94	7.10	1.48
	94.35	13.30	67.83	0.00	0.0617	10.73	472.2	376.76	0.0565	425.2	7.654	14.93	7.10	1.48
	95.35	13.30	67.81	0.00	0.0617	10.73	472.2	376.92	0.0565	425.3	7.656	14.94	7.10	1.48
	96.35	13.33	67.81	0.00	0.0617	10.74	472.6	377.26	0.0566	426.2	7.672	14.97	7.14	1.48
	97.34	13.33	67.81	0.00	0.0618	10.76	473.6	378.09	0.0568	427.4	7.694	15.01	7.18	1.48
	98.38	13.35	67.86	-0.00	0.0617	10.75	472.9	377.21	0.0567	427.1	7.687	14.99	7.17	1.48
	99.36	13.32	67.78	0.00	0.0618	10.75	472.9	377.64	0.0568	427.0	7.685	15.00	7.16	1.48
	100.36	13.32	67.78	0.00	0.0617	10.75	472.9	377.65	0.0567	427.7	7.698	15.03	7.18	1.48
	101.35	13.35	67.83	0.00	0.0618	10.74	472.7	377.26	0.0568	427.3	7.691	15.00	7.17	1.48
	102.35	13.35	67.83	-0.00	0.0616	10.71	471.4	376.22	0.0567	426.6	7.679	14.98	7.15	1.48
	103.37	13.36	67.81	-0.00	0.0615	10.71	471.2	376.25	0.0567	427.0	7.687	15.00	7.17	1.48
	104.43	13.37	67.83	-0.00	0.0614	10.69	470.6	375.58	0.0567	427.0	7.685	14.99	7.16	1.48
	105.35	13.38	67.78	0.00	0.0615	10.69	470.3	375.65	0.0565	426.0	7.669	14.97	7.13	1.48
	106.38	13.38	67.81	-0.00	0.0617	10.71	471.4	376.38	0.0564	424.3	7.638	14.91	7.07	1.48
	107.36	13.38	67.81	0.00	0.0616	10.72	471.5	376.48	0.0566	425.8	7.665	14.96	7.12	1.48
	108.36	13.38	67.81	-0.00	0.0615	10.69	470.3	375.55	0.0560	424.3	7.638	14.91	7.07	1.48
	109.42	13.40	67.81	0.00	0.0616	10.73	472.1	376.93	0.0563	421.9	7.595	14.82	6.99	1.48
	110.34	13.41	67.83	0.00	0.0617	10.72	471.9	376.69	0.0567	426.0	7.668	14.96	7.13	1.48
	111.35	13.40	67.83	0.00	0.0616	10.73	472.0	376.77	0.0566	425.8	7.665	14.95	7.13	1.48
	112.35	13.41	67.83	0.00	0.0618	10.75	473.0	377.54	0.0563	423.3	7.619	14.87	7.04	1.48
	113.38	13.38	67.81	-0.00	0.0617	10.75	473.1	377.73	0.0562	421.9	7.594	14.82	6.99	1.48
	114.35	13.38	67.81	0.00	0.0616	10.71	471.4	376.42	0.0557	416.8	7.502	14.64	6.81	1.48
	115.35	13.41	67.83	0.00	0.0614	10.69	470.4	375.49	0.0552	410.8	7.394	14.43	6.60	1.48
	116.35	13.41	67.76	0.00	0.0613	10.65	468.7	374.51	0.0550	409.5	7.371	14.40	6.56	1.48
	117.34	13.41	67.79	0.00	0.0613	10.67	469.4	374.99	0.0551	410.1	7.381	14.41	6.58	1.48
	118.36	13.41	67.81	-0.00	0.0614	10.69	470.2	375.46	0.0548	408.0	7.343	14.33	6.50	1.48
	119.36	13.43	67.81	0.00	0.0614	10.68	469.8	375.18	0.0548	406.8	7.323	14.30	6.46	1.48
	120.36	13.44	67.83	0.00	0.0615	10.70	470.9	375.94	0.0550	409.7	7.375	14.39	6.57	1.48
