Jul 25 2015 at 10:36:21
Frequency: 1.00Hz.
CO2
Zero:  Value:0.95  Date:18 Mar 2005	 at 07:22:33	
Span:  Value:1.00  Date:18 Mar 2005	 at 07:25:09	
H2O
Zero:  Value:0.71  Date:18 Mar 2005	 at 07:52:31	
Span:  Value:0.99  Date:18 Mar 2005	 at 11:44:01	
	Relative Time	Temperature	Pressure	Aux Input	CO2 Absorptance	CO2 mmol/m3	CO2 mg/m3	CO2 umol/mol	H2O Absorptance	H2O mmol/m3	H2O g/m3	H2O mmol/mol	H2O(°C)	Cooler Voltage
	0.03	20.65	67.81	-0.00	0.0615	10.69	470.3	385.02	0.0572	428.4	7.711	15.43	7.58	1.50
	1.05	20.62	67.83	-0.00	0.0616	10.69	470.2	384.84	0.0569	429.5	7.731	15.47	7.62	1.50
	2.03	20.60	67.78	0.00	0.0626	11.05	486.2	398.16	0.0566	426.9	7.684	15.38	7.52	1.50
	3.03	20.57	67.81	0.00	0.0635	11.06	486.6	398.31	0.0568	428.0	7.703	15.41	7.56	1.50
	4.03	20.55	67.81	0.00	0.0646	11.45	503.8	412.32	0.0569	428.8	7.718	15.44	7.59	1.50
	5.02	20.52	67.81	0.00	0.0649	11.48	505.0	413.25	0.0572	432.8	7.790	15.58	7.72	1.50
	6.02	20.50	67.81	0.00	0.0629	11.09	488.0	399.34	0.0568	427.8	7.701	15.40	7.55	1.50
	7.04	20.48	67.81	-0.00	0.0623	10.90	479.6	392.43	0.0567	427.2	7.689	15.38	7.53	1.50
	8.02	20.50	67.81	0.00	0.0621	10.83	476.3	389.78	0.0567	426.8	7.683	15.37	7.52	1.50
	9.10	20.47	67.81	0.00	0.0618	10.79	474.9	388.58	0.0565	425.4	7.657	15.31	7.47	1.50
	10.03	20.50	67.81	0.00	0.0616	10.70	470.9	385.38	0.0566	425.4	7.658	15.32	7.47	1.50
	11.03	20.54	67.81	-0.00	0.0614	10.69	470.2	384.84	0.0564	424.0	7.631	15.27	7.42	1.50
	12.04	20.55	67.81	-0.00	0.0614	10.66	468.9	383.75	0.0563	422.0	7.596	15.20	7.35	1.50
	13.04	20.55	67.81	-0.00	0.0614	10.68	470.1	384.76	0.0562	422.8	7.610	15.23	7.38	1.50
	14.03	20.57	67.81	0.00	0.0615	10.70	470.6	385.21	0.0563	422.3	7.601	15.21	7.36	1.50
	15.02	20.55	67.81	0.00	0.0616	10.71	471.3	385.76	0.0563	422.1	7.597	15.20	7.36	1.50
	16.02	20.55	67.81	0.00	0.0616	10.71	471.3	385.76	0.0562	421.2	7.582	15.17	7.33	1.50
	17.04	20.55	67.81	-0.00	0.0617	10.73	472.3	386.56	0.0563	421.3	7.583	15.17	7.33	1.50
	18.03	20.52	67.81	0.00	0.0617	10.74	472.5	386.69	0.0563	421.6	7.589	15.18	7.34	1.50
	19.02	20.52	67.81	0.00	0.0617	10.74	472.5	386.66	0.0563	421.8	7.592	15.19	7.34	1.51
	20.03	20.55	67.81	0.00	0.0617	10.75	472.9	387.03	0.0563	421.9	7.595	15.19	7.35	1.50
	21.03	20.57	67.81	0.00	0.0618	10.76	473.3	387.36	0.0563	423.0	7.613	15.23	7.39	1.50
	22.04	20.60	67.81	-0.00	0.0617	10.74	472.5	386.76	0.0562	422.0	7.596	15.20	7.36	1.50
	23.03	20.60	67.81	-0.00	0.0617	10.73	472.2	386.54	0.0564	423.6	7.625	15.26	7.41	1.50
	24.04	20.62	67.81	-0.00	0.0617	10.73	472.3	386.61	0.0563	422.8	7.610	15.23	7.38	1.51
	25.04	20.64	67.83	0.00	0.0617	10.73	472.2	386.49	0.0565	424.1	7.634	15.27	7.43	1.51
	26.04	20.64	67.81	-0.00	0.0617	10.74	472.6	386.92	0.0571	431.1	7.760	15.53	7.67	1.50
	27.11	20.60	67.78	-0.00	0.0617	10.73	472.3	386.80	0.0573	432.6	7.786	15.59	7.72	1.50
	28.02	20.62	67.81	0.00	0.0616	10.72	471.8	386.23	0.0567	428.7	7.717	15.44	7.59	1.50
	29.03	20.60	67.81	0.00	0.0617	10.74	472.5	386.80	0.0563	423.2	7.618	15.24	7.40	1.50
	30.03	20.59	67.81	-0.00	0.0616	10.74	472.5	386.73	0.0559	421.1	7.580	15.17	7.32	1.51
	31.05	20.59	67.81	-0.00	0.0617	10.73	472.3	386.61	0.0560	420.1	7.561	15.13	7.29	1.51
	32.03	20.60	67.81	0.00	0.0617	10.75	473.0	387.17	0.0562	420.8	7.574	15.16	7.31	1.50
	33.01	20.62	67.83	0.00	0.0617	10.73	472.2	386.45	0.0564	422.6	7.607	15.22	7.38	1.50
	34.02	20.60	67.81	0.00	0.0617	10.72	471.9	386.30	0.0560	419.7	7.555	15.12	7.28	1.50
	35.02	20.64	67.81	0.00	0.0617	10.74	472.4	386.78	0.0555	414.3	7.457	14.92	7.09	1.51
	36.12	20.62	67.81	-0.00	0.0617	10.75	472.8	387.10	0.0557	415.5	7.478	14.96	7.13	1.51
	37.03	20.62	67.83	-0.00	0.0617	10.74	472.4	386.55	0.0567	424.5	7.642	15.29	7.45	1.51
	38.03	20.58	67.81	-0.00	0.0617	10.73	472.2	386.50	0.0559	418.6	7.535	15.08	7.24	1.51
	39.03	20.57	67.81	-0.00	0.0617	10.73	472.0	386.34	0.0567	425.1	7.652	15.31	7.46	1.51
	40.03	20.57	67.81	-0.00	0.0616	10.73	471.9	386.24	0.0571	430.3	7.745	15.50	7.64	1.51
	41.09	20.59	67.81	0.00	0.0616	10.72	471.8	386.18	0.0565	424.8	7.646	15.30	7.45	1.51
	42.03	20.59	67.81	-0.00	0.0617	10.73	472.1	386.45	0.0567	427.0	7.685	15.38	7.53	1.51
	43.02	20.58	67.81	0.00	0.0616	10.73	472.0	386.35	0.0565	426.1	7.670	15.35	7.50	1.51
	44.04	20.58	67.81	-0.00	0.0616	10.73	472.0	386.32	0.0566	424.9	7.648	15.30	7.46	1.51
	45.05	20.62	67.78	-0.00	0.0616	10.73	471.9	386.48	0.0567	426.3	7.673	15.36	7.50	1.51
	46.02	20.64	67.81	0.00	0.0616	10.72	471.5	385.99	0.0566	426.1	7.670	15.35	7.50	1.51
	47.05	20.67	67.81	-0.00	0.0616	10.70	471.0	385.65	0.0562	422.0	7.597	15.20	7.36	1.51
	48.03	20.69	67.83	-0.00	0.0615	10.71	471.1	385.57	0.0562	421.6	7.588	15.18	7.35	1.51
	49.05	20.69	67.81	-0.00	0.0616	10.70	470.7	385.39	0.0565	424.2	7.636	15.28	7.44	1.51
	50.03	20.69	67.81	-0.00	0.0614	10.68	469.9	384.77	0.0560	420.0	7.560	15.13	7.29	1.51
	51.03	20.65	67.83	0.00	0.0614	10.67	469.7	384.37	0.0563	421.3	7.583	15.17	7.33	1.51
	52.03	20.64	67.81	0.00	0.0616	10.72	471.5	386.00	0.0569	428.3	7.710	15.43	7.58	1.51
	53.04	20.64	67.78	-0.00	0.0615	10.72	471.5	386.15	0.0572	430.5	7.749	15.51	7.65	1.51
	54.04	20.65	67.81	-0.00	0.0616	10.71	471.1	385.68	0.0569	428.4	7.712	15.43	7.58	1.51
	55.01	20.65	67.81	0.00	0.0615	10.69	470.6	385.25	0.0569	429.8	7.737	15.48	7.63	1.51
	56.02	20.67	67.81	0.00	0.0615	10.70	470.7	385.38	0.0570	429.8	7.737	15.49	7.63	1.51
	57.02	20.65	67.81	0.00	0.0615	10.69	470.3	385.03	0.0568	427.7	7.698	15.41	7.56	1.51
	58.03	20.65	67.81	-0.00	0.0615	10.70	470.6	385.27	0.0563	422.9	7.612	15.23	7.39	1.51
	59.02	20.65	67.81	-0.00	0.0615	10.69	470.2	385.01	0.0566	426.4	7.676	15.36	7.51	1.51
	60.03	20.64	67.81	0.00	0.0615	10.70	470.7	385.36	0.0562	421.3	7.583	15.17	7.33	1.51
	61.03	20.64	67.81	0.00	0.0617	10.73	472.0	386.45	0.0563	423.1	7.615	15.24	7.40	1.51
	62.04	20.64	67.81	-0.00	0.0616	10.73	472.2	386.56	0.0563	422.5	7.605	15.22	7.38	1.51
	63.04	20.64	67.83	-0.00	0.0615	10.71	471.1	385.59	0.0561	420.0	7.560	15.12	7.29	1.51
	64.04	20.62	67.81	-0.00	0.0615	10.69	470.4	385.07	0.0561	421.1	7.579	15.17	7.33	1.51
	65.04	20.60	67.81	-0.00	0.0615	10.69	470.3	384.97	0.0559	417.6	7.517	15.04	7.20	1.51
	66.11	20.60	67.81	-0.00	0.0615	10.70	470.9	385.47	0.0560	420.1	7.561	15.13	7.29	1.51
	67.02	20.59	67.81	0.00	0.0615	10.70	470.7	385.26	0.0559	419.4	7.549	15.10	7.27	1.51
	68.03	20.60	67.86	0.00	0.0617	10.73	472.2	386.28	0.0561	419.7	7.554	15.10	7.28	1.51
	69.03	20.60	67.81	-0.00	0.0617	10.73	472.0	386.34	0.0561	420.3	7.565	15.14	7.30	1.51
	70.03	20.60	67.81	-0.00	0.0616	10.70	471.0	385.55	0.0561	420.8	7.574	15.16	7.31	1.51
	71.03	20.60	67.81	0.00	0.0615	10.68	470.1	384.79	0.0559	418.7	7.537	15.08	7.24	1.51
	72.04	20.60	67.81	-0.00	0.0614	10.68	469.7	384.52	0.0559	418.3	7.530	15.07	7.23	1.51
	73.04	20.62	67.81	-0.00	0.0614	10.67	469.4	384.28	0.0559	417.5	7.514	15.04	7.20	1.51
	74.02	20.59	67.78	0.00	0.0615	10.68	469.8	384.74	0.0560	418.7	7.536	15.09	7.24	1.51
	75.02	20.57	67.81	0.00	0.0616	10.72	471.5	385.90	0.0562	421.3	7.584	15.17	7.33	1.51
	76.03	20.57	67.81	-0.00	0.0614	10.68	469.8	384.49	0.0560	419.0	7.542	15.09	7.25	1.51
	77.02	20.57	67.81	0.00	0.0615	10.68	470.1	384.80	0.0560	419.6	7.553	15.11	7.27	1.51
	78.03	20.57	67.81	-0.00	0.0614	10.67	469.4	384.21	0.0559	418.9	7.540	15.09	7.25	1.51
	79.05	20.59	67.81	-0.00	0.0614	10.68	469.8	384.58	0.0561	420.3	7.565	15.14	7.30	1.51
	80.03	20.57	67.81	0.00	0.0614	10.67	469.5	384.24	0.0561	420.5	7.569	15.14	7.30	1.51
	81.03	20.57	67.78	0.00	0.0614	10.67	469.5	384.42	0.0561	420.4	7.567	15.15	7.30	1.51
	82.03	20.57	67.81	-0.00	0.0614	10.67	469.6	384.36	0.0560	420.7	7.572	15.15	7.31	1.51
	83.04	20.58	67.81	-0.00	0.0613	10.65	468.4	383.41	0.0559	419.5	7.552	15.11	7.27	1.51
	84.02	20.59	67.81	0.00	0.0612	10.64	468.2	383.28	0.0558	418.7	7.536	15.08	7.24	1.51
	85.02	20.60	67.81	0.00	0.0613	10.65	468.6	383.59	0.0559	418.4	7.531	15.07	7.23	1.51
	86.02	20.60	67.81	0.00	0.0613	10.66	468.9	383.77	0.0560	418.8	7.539	15.08	7.25	1.51
	87.03	20.62	67.81	-0.00	0.0613	10.64	468.3	383.36	0.0560	418.3	7.529	15.07	7.23	1.51
	88.03	20.62	67.80	-0.00	0.0613	10.64	468.3	383.40	0.0559	418.6	7.536	15.08	7.24	1.51
	89.03	20.62	67.81	0.00	0.0614	10.67	469.7	384.50	0.0561	421.0	7.578	15.16	7.32	1.51
	90.01	20.64	67.81	0.00	0.0614	10.68	469.9	384.71	0.0561	421.3	7.584	15.18	7.34	1.51
	91.03	20.65	67.83	0.00	0.0613	10.66	469.1	383.90	0.0560	420.2	7.564	15.13	7.30	1.51
	92.01	20.69	67.86	0.00	0.0613	10.65	468.7	383.50	0.0560	418.3	7.529	15.06	7.23	1.51
	93.04	20.70	67.81	-0.00	0.0613	10.65	468.5	383.64	0.0558	417.9	7.523	15.06	7.22	1.51
	94.04	20.72	67.81	0.00	0.0612	10.64	468.0	383.23	0.0557	417.3	7.511	15.03	7.20	1.52
	95.04	20.72	67.81	0.00	0.0612	10.64	468.0	383.27	0.0558	418.2	7.528	15.07	7.23	1.51
	96.03	20.70	67.78	0.00	0.0612	10.63	467.7	383.17	0.0559	418.1	7.526	15.07	7.23	1.51
	97.02	20.70	67.83	0.00	0.0612	10.63	467.6	382.71	0.0561	419.5	7.551	15.11	7.28	1.51
	98.03	20.69	67.81	-0.00	0.0612	10.62	467.3	382.67	0.0561	420.0	7.560	15.13	7.29	1.51
	99.01	20.65	67.81	0.00	0.0612	10.63	467.7	382.92	0.0562	421.8	7.592	15.19	7.35	1.51
	100.03	20.64	67.81	0.00	0.0612	10.63	467.7	382.90	0.0565	423.0	7.614	15.24	7.39	1.52
	101.01	20.64	67.81	0.00	0.0611	10.60	466.6	381.99	0.0560	420.8	7.575	15.16	7.32	1.51
	102.03	20.62	67.81	0.00	0.0611	10.59	466.0	381.49	0.0563	421.3	7.583	15.17	7.33	1.51
	103.02	20.62	67.83	0.00	0.0612	10.62	467.1	382.29	0.0564	423.2	7.618	15.24	7.40	1.51
	104.02	20.62	67.78	0.00	0.0612	10.62	467.2	382.64	0.0564	423.7	7.627	15.27	7.42	1.51
	105.02	20.62	67.81	0.00	0.0612	10.62	467.4	382.65	0.0564	423.6	7.625	15.26	7.41	1.52
	106.02	20.64	67.79	0.00	0.0611	10.62	467.1	382.55	0.0565	425.7	7.663	15.34	7.49	1.52
	107.02	20.64	67.81	0.00	0.0611	10.62	467.1	382.40	0.0564	425.0	7.650	15.31	7.46	1.51
	108.02	20.64	67.81	0.00	0.0611	10.61	467.0	382.35	0.0564	423.8	7.629	15.27	7.42	1.51
	109.01	20.64	67.81	0.00	0.0612	10.62	467.5	382.70	0.0563	421.7	7.591	15.19	7.35	1.51
	110.03	20.62	67.81	-0.00	0.0613	10.65	468.5	383.50	0.0563	422.9	7.611	15.23	7.39	1.51
	111.03	20.60	67.81	-0.00	0.0610	10.60	466.5	381.85	0.0560	420.5	7.568	15.14	7.30	1.52
	112.04	20.64	67.81	-0.00	0.0612	10.63	467.6	382.79	0.0563	422.3	7.601	15.21	7.37	1.52
	113.02	20.64	67.81	0.00	0.0613	10.66	469.1	384.07	0.0564	424.9	7.649	15.31	7.46	1.52
	114.02	20.64	67.81	0.00	0.0612	10.62	467.4	382.63	0.0563	422.3	7.602	15.21	7.37	1.51
	115.02	20.64	67.81	0.00	0.0611	10.61	466.6	382.03	0.0560	420.2	7.563	15.14	7.30	1.52
	116.03	20.64	67.81	-0.00	0.0610	10.59	465.9	381.39	0.0559	419.6	7.553	15.12	7.28	1.52
	117.03	20.64	67.81	-0.00	0.0611	10.61	466.7	382.06	0.0562	420.0	7.560	15.13	7.29	1.52
	118.02	20.67	67.81	0.00	0.0611	10.61	466.6	382.06	0.0562	421.7	7.590	15.19	7.35	1.52
	119.03	20.65	67.78	-0.00	0.0611	10.61	467.0	382.47	0.0562	423.1	7.616	15.25	7.40	1.52
