Jul 25 2015 at 9:23:10
Frequency: 1.00Hz.
CO2
Zero:  Value:0.95  Date:18 Mar 2005	 at 07:22:33	
Span:  Value:1.00  Date:18 Mar 2005	 at 07:25:09	
H2O
Zero:  Value:0.71  Date:18 Mar 2005	 at 07:52:31	
Span:  Value:0.99  Date:18 Mar 2005	 at 11:44:01	
	Relative Time	Temperature	Pressure	Aux Input	CO2 Absorptance	CO2 mmol/m3	CO2 mg/m3	CO2 umol/mol	H2O Absorptance	H2O mmol/m3	H2O g/m3	H2O mmol/mol	H2O(°C)	Cooler Voltage
	0.03	14.64	67.81	0.00	0.0613	10.64	468.2	375.44	0.0633	503.1	9.055	17.75	9.65	1.49
	1.05	14.64	67.79	0.00	0.0613	10.66	468.9	376.19	0.0629	494.4	8.900	17.45	9.39	1.49
	2.03	14.64	67.81	0.00	0.0610	10.58	465.6	373.44	0.0639	508.9	9.160	17.96	9.82	1.49
	3.04	14.64	67.81	0.00	0.0611	10.60	466.4	374.00	0.0636	503.3	9.059	17.76	9.65	1.49
	4.04	14.66	67.79	0.00	0.0614	10.67	469.5	376.63	0.0627	496.5	8.937	17.53	9.45	1.49
	5.04	14.64	67.81	0.00	0.0616	10.70	470.8	377.56	0.0621	486.9	8.764	17.18	9.16	1.49
	6.04	14.66	67.81	0.00	0.0620	10.79	474.8	380.80	0.0619	484.4	8.718	17.09	9.08	1.49
	7.07	14.64	67.81	0.00	0.0616	10.71	471.3	378.00	0.0628	492.7	8.868	17.38	9.34	1.49
	8.05	14.64	67.83	0.00	0.0615	10.70	470.8	377.42	0.0627	493.3	8.880	17.40	9.36	1.49
	9.05	14.67	67.76	-0.00	0.0617	10.74	472.4	379.21	0.0628	494.0	8.891	17.44	9.38	1.49
	10.06	14.64	67.76	-0.00	0.0615	10.72	471.9	378.70	0.0629	492.3	8.861	17.38	9.33	1.49
	11.11	14.66	67.81	0.00	0.0613	10.64	468.1	375.42	0.0636	503.1	9.056	17.75	9.65	1.49
	12.06	14.67	67.81	-0.00	0.0612	10.63	467.7	375.10	0.0634	501.2	9.021	17.69	9.59	1.49
	13.06	14.64	67.78	0.00	0.0612	10.63	467.8	375.29	0.0636	501.8	9.033	17.71	9.61	1.49
	14.04	14.69	67.81	0.00	0.0612	10.63	467.7	375.12	0.0638	503.8	9.068	17.78	9.67	1.49
	15.13	14.69	67.81	-0.00	0.0611	10.59	465.8	373.61	0.0637	506.0	9.107	17.86	9.74	1.49
	16.05	14.67	67.81	-0.00	0.0611	10.61	466.9	374.52	0.0636	503.9	9.070	17.78	9.67	1.49
	17.04	14.66	67.81	0.00	0.0611	10.61	466.8	374.40	0.0640	506.7	9.120	17.88	9.75	1.49
	18.05	14.69	67.81	-0.00	0.0610	10.59	465.8	373.58	0.0643	510.2	9.184	18.01	9.86	1.49
	19.05	14.69	67.81	0.00	0.0610	10.57	465.3	373.22	0.0642	511.0	9.198	18.04	9.88	1.49
	20.12	14.69	67.81	0.00	0.0609	10.56	464.5	372.59	0.0643	511.1	9.199	18.04	9.88	1.49
	21.05	14.70	67.81	0.00	0.0610	10.56	464.8	372.86	0.0645	512.8	9.230	18.10	9.94	1.49
	22.04	14.69	67.81	-0.00	0.0610	10.58	465.6	373.44	0.0645	514.0	9.253	18.14	9.97	1.49
	23.06	14.71	67.81	-0.00	0.0611	10.60	466.3	374.03	0.0645	513.4	9.242	18.12	9.95	1.49
	24.04	14.71	67.81	0.00	0.0610	10.58	465.6	373.48	0.0643	511.2	9.202	18.04	9.89	1.49
	25.02	14.69	67.83	0.00	0.0610	10.59	465.8	373.51	0.0643	511.6	9.209	18.05	9.90	1.49
	26.05	14.71	67.81	-0.00	0.0610	10.58	465.7	373.54	0.0646	513.9	9.251	18.14	9.97	1.49
	27.05	14.71	67.81	-0.00	0.0610	10.59	466.2	373.92	0.0647	516.0	9.288	18.21	10.03	1.49
	28.05	14.71	67.78	0.00	0.0610	10.58	465.7	373.69	0.0645	514.1	9.253	18.15	9.97	1.49
	29.05	14.69	67.78	-0.00	0.0610	10.58	465.5	373.48	0.0647	516.1	9.290	18.22	10.03	1.49
	30.03	14.69	67.78	0.00	0.0610	10.57	465.1	373.23	0.0653	521.7	9.390	18.42	10.19	1.49
	31.05	14.72	67.81	0.00	0.0610	10.57	464.9	372.95	0.0654	524.0	9.433	18.50	10.26	1.49
	32.03	14.71	67.81	0.00	0.0610	10.58	465.3	373.28	0.0650	519.7	9.355	18.34	10.14	1.49
	33.06	14.72	67.81	0.00	0.0609	10.57	464.9	372.97	0.0651	520.0	9.361	18.35	10.15	1.49
	34.04	14.72	67.79	-0.00	0.0610	10.57	465.2	373.28	0.0651	520.0	9.360	18.36	10.14	1.49
	35.04	14.72	67.83	-0.00	0.0610	10.57	465.2	373.08	0.0651	520.2	9.364	18.36	10.15	1.49
	36.04	14.72	67.78	0.00	0.0609	10.57	464.9	373.11	0.0651	520.3	9.365	18.37	10.15	1.49
	37.03	14.74	67.81	0.00	0.0609	10.56	464.5	372.66	0.0652	520.2	9.364	18.36	10.15	1.49
	38.03	14.72	67.79	0.00	0.0609	10.56	464.6	372.79	0.0653	523.2	9.417	18.47	10.24	1.49
	39.05	14.72	67.81	0.00	0.0610	10.56	464.8	372.82	0.0653	522.4	9.403	18.44	10.21	1.49
	40.06	14.74	67.79	-0.00	0.0609	10.56	464.5	372.73	0.0656	526.0	9.468	18.57	10.32	1.49
	41.04	14.74	67.81	0.00	0.0608	10.53	463.3	371.68	0.0658	529.7	9.535	18.70	10.42	1.49
	42.04	14.74	67.81	-0.00	0.0609	10.56	464.6	372.77	0.0652	522.0	9.397	18.43	10.20	1.49
	43.06	14.74	67.78	-0.00	0.0609	10.56	464.8	373.02	0.0652	520.6	9.371	18.39	10.16	1.49
	44.04	14.75	67.78	0.00	0.0607	10.52	462.8	371.41	0.0659	527.7	9.499	18.64	10.37	1.49
	45.04	14.75	67.79	-0.00	0.0607	10.50	462.0	370.78	0.0664	537.9	9.682	18.99	10.65	1.49
	46.04	14.77	67.81	0.00	0.0610	10.57	465.1	373.14	0.0652	521.9	9.395	18.43	10.20	1.49
	47.05	14.75	67.83	0.00	0.0609	10.57	465.0	372.93	0.0653	521.5	9.386	18.40	10.19	1.49
	48.03	14.77	67.81	0.00	0.0609	10.56	464.6	372.77	0.0655	524.8	9.446	18.53	10.29	1.49
	49.05	14.77	67.83	0.00	0.0608	10.55	464.4	372.48	0.0656	523.8	9.428	18.48	10.26	1.49
	50.03	14.77	67.83	0.00	0.0607	10.51	462.3	370.83	0.0666	540.0	9.720	19.06	10.71	1.49
	51.04	14.77	67.81	0.00	0.0609	10.56	464.5	372.68	0.0654	525.3	9.456	18.54	10.30	1.49
	52.06	14.75	67.81	0.00	0.0608	10.52	462.8	371.32	0.0664	541.6	9.749	19.12	10.76	1.49
	53.06	14.77	67.81	-0.00	0.0609	10.57	465.1	373.13	0.0658	528.2	9.507	18.64	10.38	1.49
	54.04	14.79	67.79	0.00	0.0609	10.55	464.1	372.48	0.0661	532.9	9.592	18.82	10.51	1.49
	55.05	14.79	67.81	-0.00	0.0608	10.54	463.9	372.23	0.0666	534.6	9.623	18.87	10.56	1.49
	56.04	14.77	67.81	0.00	0.0608	10.53	463.4	371.78	0.0666	542.2	9.760	19.14	10.78	1.49
	57.05	14.79	67.78	0.00	0.0609	10.55	464.1	372.52	0.0668	539.7	9.715	19.06	10.71	1.49
	58.05	14.79	67.81	0.00	0.0610	10.57	465.1	373.21	0.0662	533.6	9.606	18.84	10.54	1.49
	59.05	14.79	67.78	-0.00	0.0610	10.57	465.2	373.37	0.0662	534.6	9.622	18.88	10.56	1.49
	60.06	14.80	67.83	-0.00	0.0609	10.56	464.6	372.67	0.0665	536.0	9.649	18.92	10.60	1.49
	61.04	14.79	67.81	0.00	0.0608	10.54	463.7	372.07	0.0667	539.6	9.713	19.05	10.70	1.49
	62.06	14.80	67.81	-0.00	0.0609	10.55	464.4	372.65	0.0662	534.4	9.619	18.87	10.56	1.49
	63.04	14.82	67.81	0.00	0.0609	10.56	464.7	372.91	0.0661	532.6	9.586	18.80	10.51	1.49
	64.04	14.79	67.86	0.00	0.0609	10.56	464.5	372.44	0.0665	535.3	9.635	18.88	10.58	1.49
	65.04	14.82	67.81	0.00	0.0607	10.51	462.5	371.12	0.0673	545.7	9.823	19.27	10.87	1.49
	66.11	14.80	67.81	0.00	0.0605	10.47	460.7	369.70	0.0682	557.3	10.032	19.68	11.19	1.49
	67.03	14.82	67.81	-0.00	0.0607	10.50	462.0	370.73	0.0669	541.9	9.755	19.14	10.77	1.49
	68.03	14.80	67.81	0.00	0.0605	10.49	461.5	370.31	0.0673	544.4	9.799	19.22	10.84	1.49
	69.03	14.82	67.81	0.00	0.0605	10.46	460.2	369.34	0.0683	559.3	10.068	19.75	11.25	1.49
	70.06	14.82	67.79	-0.00	0.0606	10.47	460.9	369.95	0.0679	555.7	10.003	19.63	11.15	1.49
	71.04	14.83	67.81	0.00	0.0606	10.49	461.7	370.57	0.0679	551.5	9.928	19.48	11.03	1.49
	72.04	14.83	67.79	0.00	0.0607	10.50	462.0	370.85	0.0672	548.4	9.871	19.37	10.95	1.49
	73.04	14.83	67.81	0.00	0.0608	10.53	463.4	371.86	0.0668	541.4	9.745	19.12	10.76	1.49
	74.04	14.83	67.81	0.00	0.0609	10.56	464.6	372.86	0.0662	533.3	9.600	18.83	10.53	1.49
	75.05	14.83	67.81	-0.00	0.0607	10.52	462.8	371.41	0.0669	539.8	9.717	19.06	10.71	1.49
	76.03	14.85	67.83	0.00	0.0606	10.49	461.5	370.21	0.0674	548.0	9.865	19.35	10.94	1.49
	77.13	14.84	67.83	-0.00	0.0607	10.50	462.0	370.62	0.0672	546.3	9.834	19.28	10.89	1.49
	78.05	14.85	67.81	-0.00	0.0608	10.53	463.5	371.99	0.0665	538.5	9.693	19.02	10.68	1.49
	79.06	14.85	67.78	-0.00	0.0608	10.55	464.2	372.71	0.0664	534.4	9.620	18.88	10.56	1.49
	80.06	14.85	67.81	-0.00	0.0607	10.51	462.6	371.30	0.0670	543.2	9.778	19.18	10.81	1.49
	81.06	14.83	67.81	-0.00	0.0606	10.50	462.2	370.91	0.0671	542.7	9.768	19.16	10.79	1.49
	82.04	14.87	67.81	-0.00	0.0604	10.45	459.9	369.09	0.0679	554.6	9.983	19.59	11.12	1.49
	83.06	14.85	67.81	-0.00	0.0604	10.45	459.8	368.99	0.0679	551.3	9.923	19.47	11.03	1.49
	84.04	14.85	67.81	-0.00	0.0606	10.50	461.9	370.71	0.0672	544.7	9.805	19.24	10.85	1.49
	85.05	14.87	67.78	-0.00	0.0606	10.49	461.5	370.54	0.0670	544.9	9.808	19.25	10.85	1.49
	86.05	14.87	67.81	-0.00	0.0606	10.51	462.6	371.26	0.0666	538.3	9.690	19.01	10.67	1.49
	87.05	14.85	67.81	-0.00	0.0605	10.48	461.2	370.13	0.0675	544.7	9.804	19.23	10.85	1.49
	88.05	14.87	67.81	0.00	0.0601	10.37	456.5	366.36	0.0689	569.2	10.246	20.10	11.51	1.49
	89.11	14.88	67.79	0.00	0.0602	10.42	458.5	368.14	0.0686	557.5	10.036	19.70	11.20	1.49
	90.04	14.85	67.81	0.00	0.0605	10.46	460.4	369.50	0.0675	549.4	9.889	19.40	10.98	1.49
	91.04	14.88	67.81	-0.00	0.0604	10.46	460.1	369.28	0.0677	551.7	9.931	19.49	11.04	1.49
	92.03	14.88	67.81	0.00	0.0605	10.47	460.5	369.64	0.0675	550.6	9.910	19.44	11.01	1.49
	93.04	14.88	67.81	0.00	0.0606	10.49	461.4	370.39	0.0673	545.2	9.813	19.25	10.86	1.49
	94.05	14.88	67.81	-0.00	0.0606	10.49	461.5	370.45	0.0671	544.6	9.803	19.23	10.85	1.49
	95.05	14.87	67.81	0.00	0.0605	10.48	461.0	370.02	0.0673	547.0	9.845	19.32	10.91	1.49
	96.03	14.90	67.81	0.00	0.0606	10.48	461.1	370.14	0.0673	546.5	9.836	19.30	10.90	1.49
	97.05	14.90	67.81	-0.00	0.0606	10.48	461.2	370.22	0.0671	545.5	9.818	19.27	10.87	1.49
	98.05	14.90	67.81	-0.00	0.0606	10.51	462.3	371.06	0.0668	540.6	9.730	19.09	10.74	1.49
	99.05	14.92	67.81	-0.00	0.0605	10.48	460.9	369.97	0.0673	544.7	9.805	19.24	10.85	1.49
	100.04	14.90	67.81	-0.00	0.0603	10.43	458.9	368.36	0.0677	549.9	9.899	19.42	10.99	1.49
	101.04	14.92	67.81	0.00	0.0607	10.50	462.1	370.97	0.0669	542.4	9.763	19.16	10.79	1.49
	102.04	14.92	67.81	0.00	0.0607	10.51	462.4	371.19	0.0670	544.0	9.791	19.21	10.83	1.49
	103.06	14.92	67.81	-0.00	0.0605	10.49	461.4	370.42	0.0677	548.5	9.872	19.37	10.95	1.49
	104.04	14.92	67.81	0.00	0.0605	10.47	460.9	369.98	0.0676	549.1	9.884	19.39	10.97	1.49
	105.05	14.90	67.81	0.00	0.0606	10.48	461.2	370.21	0.0676	550.0	9.899	19.42	11.00	1.49
	106.05	14.95	67.81	-0.00	0.0603	10.44	459.6	368.95	0.0683	554.5	9.982	19.59	11.12	1.50
	107.05	14.92	67.81	-0.00	0.0605	10.46	460.4	369.57	0.0677	551.0	9.918	19.46	11.02	1.49
	108.03	14.93	67.81	0.00	0.0605	10.45	459.7	369.06	0.0675	550.6	9.911	19.45	11.02	1.50
	109.05	14.93	67.81	-0.00	0.0603	10.41	457.8	367.53	0.0685	561.0	10.099	19.82	11.30	1.50
	110.06	14.90	67.81	-0.00	0.0605	10.46	460.5	369.59	0.0675	549.0	9.883	19.39	10.97	1.49
	111.04	14.93	67.81	0.00	0.0606	10.48	461.0	370.06	0.0675	548.8	9.878	19.38	10.96	1.49
	112.12	14.93	67.81	0.00	0.0603	10.46	460.2	369.43	0.0680	550.1	9.901	19.43	11.00	1.49
	113.05	14.95	67.81	0.00	0.0603	10.43	458.7	368.26	0.0680	556.1	10.010	19.64	11.17	1.49
	114.05	14.95	67.79	-0.00	0.0605	10.47	460.5	369.83	0.0676	549.7	9.895	19.42	10.99	1.50
	115.04	14.95	67.81	0.00	0.0604	10.46	460.4	369.63	0.0678	551.6	9.928	19.48	11.04	1.50
	116.03	14.93	67.81	0.00	0.0606	10.49	461.4	370.42	0.0674	547.6	9.856	19.34	10.93	1.50
	117.03	14.93	67.81	0.00	0.0606	10.48	461.1	370.20	0.0674	547.5	9.855	19.34	10.93	1.49
	118.03	14.95	67.86	0.00	0.0604	10.44	459.5	368.62	0.0678	551.8	9.933	19.48	11.05	1.50
	119.03	14.97	67.83	0.00	0.0604	10.43	459.0	368.40	0.0678	554.4	9.979	19.58	11.12	1.50
	120.04	14.98	67.81	-0.00	0.0605	10.47	460.6	369.80	0.0674	547.1	9.848	19.33	10.92	1.50
	121.06	14.98	67.83	-0.00	0.0603	10.43	459.1	368.50	0.0679	553.6	9.965	19.55	11.10	1.50
	122.04	15.00	67.81	-0.00	0.0603	10.42	458.7	368.32	0.0680	555.5	10.000	19.63	11.15	1.50
	123.05	15.00	67.81	0.00	0.0604	10.44	459.4	368.89	0.0677	551.3	9.923	19.48	11.04	1.50
	124.11	15.00	67.81	0.00	0.0603	10.43	458.8	368.42	0.0679	553.2	9.958	19.55	11.09	1.50
