Jul 25 2015 at 13:17:29
Frequency: 1.00Hz.
CO2
Zero:  Value:0.95  Date:18 Mar 2005	 at 07:22:33	
Span:  Value:1.00  Date:18 Mar 2005	 at 07:25:09	
H2O
Zero:  Value:0.71  Date:18 Mar 2005	 at 07:52:31	
Span:  Value:0.99  Date:18 Mar 2005	 at 11:44:01	
	Relative Time	Temperature	Pressure	Aux Input	CO2 Absorptance	CO2 mmol/m3	CO2 mg/m3	CO2 umol/mol	H2O Absorptance	H2O mmol/m3	H2O g/m3	H2O mmol/mol	H2O(°C)	Cooler Voltage
	0.89	27.85	70.28	0.00	0.0637	11.09	488.0	394.94	0.0565	420.7	7.573	14.98	7.67	1.65
	1.90	27.89	70.28	-0.00	0.0636	11.06	486.5	393.79	0.0565	418.7	7.537	14.91	7.60	1.65
	2.89	27.91	70.30	-0.00	0.0635	10.99	483.5	391.26	0.0568	415.2	7.473	14.78	7.48	1.65
	3.88	27.90	70.28	0.00	0.0634	11.01	484.3	391.94	0.0571	424.2	7.635	15.11	7.79	1.65
	4.88	27.85	70.28	-0.00	0.0635	11.02	484.8	392.29	0.0573	426.9	7.684	15.20	7.88	1.65
	5.90	27.87	70.30	-0.00	0.0635	11.03	485.2	392.58	0.0573	426.1	7.670	15.17	7.86	1.65
	6.88	27.91	70.26	-0.00	0.0635	11.00	484.0	391.92	0.0572	426.0	7.669	15.18	7.86	1.65
	7.88	27.93	70.28	0.00	0.0635	11.02	484.8	392.42	0.0574	426.9	7.685	15.21	7.89	1.65
	8.86	27.87	70.28	0.00	0.0634	11.00	484.1	391.80	0.0573	426.6	7.679	15.19	7.87	1.65
	9.88	27.79	70.28	0.00	0.0634	11.01	484.2	391.79	0.0573	427.4	7.694	15.22	7.90	1.65
	10.89	27.81	70.25	-0.00	0.0634	10.99	483.6	391.48	0.0573	423.8	7.629	15.10	7.78	1.65
	11.95	27.88	70.28	-0.00	0.0634	11.01	484.5	392.15	0.0576	431.3	7.763	15.36	8.03	1.65
	12.88	27.84	70.28	-0.00	0.0632	10.97	482.7	390.59	0.0570	423.1	7.617	15.07	7.75	1.65
	13.95	27.91	70.28	-0.00	0.0633	10.98	483.0	390.95	0.0573	426.9	7.684	15.20	7.89	1.65
	14.87	27.89	70.30	0.00	0.0631	10.96	482.4	390.35	0.0572	429.7	7.735	15.30	7.98	1.65
	15.88	27.91	70.28	-0.00	0.0633	10.97	482.9	390.83	0.0581	435.5	7.839	15.51	8.18	1.65
	16.89	27.93	70.28	-0.00	0.0634	11.00	484.0	391.77	0.0588	439.4	7.909	15.65	8.31	1.65
	17.89	27.87	70.31	0.00	0.0634	10.99	483.7	391.33	0.0588	440.3	7.926	15.67	8.34	1.65
	18.89	27.89	70.28	-0.00	0.0629	10.90	479.7	388.26	0.0572	427.8	7.700	15.23	7.91	1.65
	19.89	27.87	70.28	-0.00	0.0633	10.96	482.4	390.40	0.0584	436.3	7.853	15.54	8.20	1.65
	20.87	27.83	70.28	0.00	0.0635	11.04	485.6	392.93	0.0595	451.7	8.131	16.08	8.72	1.65
	21.89	27.81	70.25	0.00	0.0635	11.03	485.4	392.95	0.0594	448.6	8.075	15.98	8.61	1.65
	22.87	27.81	70.28	0.00	0.0634	11.05	486.0	393.26	0.0592	453.9	8.170	16.16	8.78	1.65
	23.88	27.90	70.28	-0.00	0.0637	11.04	485.9	393.25	0.0605	453.1	8.157	16.14	8.76	1.65
	24.88	27.85	70.30	-0.00	0.0635	11.03	485.4	392.70	0.0605	465.8	8.384	16.58	9.17	1.65
	25.88	27.83	70.28	-0.00	0.0631	11.02	485.0	392.51	0.0596	461.8	8.313	16.44	9.04	1.65
	26.88	27.85	70.30	0.00	0.0634	11.01	484.4	391.85	0.0596	454.6	8.182	16.18	8.81	1.66
	27.88	27.87	70.25	-0.00	0.0635	11.02	484.7	392.41	0.0594	449.9	8.098	16.03	8.66	1.66
	28.88	27.87	70.28	0.00	0.0634	11.01	484.4	392.00	0.0587	444.5	8.001	15.83	8.48	1.65
	29.87	27.89	70.28	-0.00	0.0630	10.92	480.7	389.04	0.0574	429.3	7.728	15.29	7.97	1.65
	30.89	27.91	70.28	-0.00	0.0630	10.92	480.6	389.00	0.0576	429.1	7.724	15.28	7.96	1.65
	31.86	27.88	70.28	0.00	0.0631	10.93	480.8	389.13	0.0577	430.3	7.746	15.32	8.00	1.65
	32.96	27.93	70.31	0.00	0.0633	10.99	483.4	391.12	0.0586	439.6	7.913	15.65	8.32	1.66
	33.90	27.93	70.25	-0.00	0.0634	11.00	484.0	391.90	0.0589	442.6	7.967	15.77	8.42	1.66
	34.88	27.88	70.28	0.00	0.0637	11.05	486.3	393.61	0.0602	458.1	8.246	16.31	8.92	1.65
	35.90	27.83	70.25	-0.00	0.0636	11.04	485.6	393.15	0.0598	449.8	8.096	16.02	8.65	1.66
	36.88	27.83	70.28	0.00	0.0635	11.03	485.5	392.85	0.0609	468.5	8.433	16.68	9.26	1.65
	37.89	27.83	70.28	-0.00	0.0630	10.94	481.4	389.55	0.0588	447.5	8.054	15.93	8.57	1.66
	38.95	27.85	70.25	-0.00	0.0630	10.91	479.8	388.46	0.0582	437.4	7.874	15.58	8.24	1.66
	39.87	27.89	70.28	0.00	0.0629	10.89	479.2	387.85	0.0579	433.7	7.807	15.45	8.12	1.66
	40.87	27.92	70.28	-0.00	0.0628	10.88	478.5	387.33	0.0581	434.6	7.822	15.48	8.15	1.65
	41.89	27.96	70.28	-0.00	0.0629	10.88	478.7	387.56	0.0582	435.3	7.835	15.51	8.17	1.66
	42.87	27.95	70.28	-0.00	0.0631	10.93	480.9	389.26	0.0588	443.2	7.977	15.78	8.44	1.66
	43.87	27.95	70.28	0.00	0.0632	10.96	482.3	390.45	0.0597	452.9	8.152	16.13	8.76	1.66
	44.88	27.99	70.28	-0.00	0.0629	10.90	479.5	388.23	0.0588	443.9	7.990	15.81	8.46	1.66
	45.86	27.96	70.28	0.00	0.0628	10.88	478.8	387.59	0.0586	441.0	7.938	15.71	8.37	1.66
	46.89	27.98	70.28	0.00	0.0629	10.89	479.1	387.85	0.0588	442.6	7.968	15.77	8.42	1.66
	47.88	28.00	70.26	0.00	0.0629	10.89	479.2	388.12	0.0591	445.1	8.012	15.86	8.51	1.66
	48.89	28.00	70.28	0.00	0.0630	10.90	479.7	388.38	0.0597	449.2	8.086	16.00	8.64	1.66
	49.87	28.06	70.28	0.00	0.0630	10.92	480.5	389.11	0.0595	451.1	8.119	16.07	8.70	1.66
	50.89	28.04	70.30	-0.00	0.0629	10.89	479.3	387.97	0.0595	451.0	8.117	16.06	8.70	1.66
	51.87	28.06	70.26	0.00	0.0628	10.88	478.7	387.76	0.0595	450.0	8.101	16.04	8.67	1.66
	52.88	28.06	70.28	-0.00	0.0628	10.87	478.2	387.29	0.0595	450.0	8.101	16.04	8.67	1.66
	53.90	28.06	70.28	-0.00	0.0630	10.88	478.9	387.83	0.0604	452.1	8.138	16.11	8.74	1.66
	54.87	28.05	70.28	0.00	0.0630	10.90	479.7	388.49	0.0610	463.1	8.335	16.50	9.09	1.66
	55.88	28.08	70.28	0.00	0.0629	10.90	479.5	388.32	0.0608	464.2	8.355	16.54	9.13	1.66
	56.88	28.11	70.28	-0.00	0.0630	10.91	479.9	388.68	0.0610	466.6	8.399	16.63	9.21	1.66
	57.89	28.10	70.28	-0.00	0.0629	10.91	480.1	388.83	0.0610	467.1	8.408	16.65	9.22	1.66
	58.88	28.10	70.28	-0.00	0.0629	10.89	479.4	388.26	0.0613	469.2	8.446	16.72	9.29	1.66
	59.90	28.08	70.28	0.00	0.0630	10.91	480.2	388.92	0.0621	478.2	8.607	17.04	9.57	1.66
	60.87	28.11	70.28	0.00	0.0630	10.93	481.0	389.57	0.0625	482.5	8.686	17.20	9.71	1.66
	61.88	28.10	70.28	0.00	0.0630	10.91	480.0	388.80	0.0626	482.8	8.691	17.21	9.72	1.66
	62.87	28.13	70.28	0.00	0.0632	10.96	482.1	390.49	0.0633	490.0	8.820	17.46	9.94	1.66
	63.88	28.15	70.28	0.00	0.0631	10.94	481.3	389.85	0.0628	487.3	8.772	17.37	9.86	1.66
	64.86	28.13	70.28	0.00	0.0630	10.92	480.4	389.17	0.0628	486.8	8.763	17.35	9.84	1.66
	65.88	28.14	70.28	0.00	0.0631	10.94	481.2	389.81	0.0638	497.7	8.959	17.74	10.17	1.66
	66.88	28.04	70.28	-0.00	0.0632	10.94	481.5	389.94	0.0640	498.3	8.970	17.76	10.19	1.66
	67.95	28.03	70.28	-0.00	0.0631	10.93	480.9	389.42	0.0638	495.0	8.910	17.64	10.09	1.66
	68.95	28.03	70.28	0.00	0.0632	10.94	481.2	389.67	0.0640	496.5	8.938	17.69	10.13	1.66
	69.87	28.06	70.28	0.00	0.0631	10.94	481.3	389.78	0.0636	495.7	8.922	17.66	10.11	1.66
	70.89	28.06	70.31	-0.00	0.0631	10.93	481.0	389.39	0.0643	501.8	9.032	17.87	10.29	1.66
	71.87	28.07	70.33	-0.00	0.0631	10.94	481.2	389.48	0.0643	502.3	9.041	17.89	10.30	1.66
	72.88	28.07	70.26	0.00	0.0631	10.94	481.2	389.81	0.0644	503.8	9.068	17.96	10.35	1.66
	73.96	28.08	70.28	-0.00	0.0630	10.91	480.1	388.87	0.0638	496.9	8.944	17.71	10.14	1.66
	74.88	28.07	70.25	0.00	0.0631	10.94	481.4	390.02	0.0644	504.9	9.088	18.00	10.38	1.66
	75.88	28.10	70.25	-0.00	0.0630	10.92	480.6	389.42	0.0638	497.8	8.960	17.75	10.17	1.66
	76.88	28.11	70.28	0.00	0.0629	10.91	479.9	388.65	0.0639	499.8	8.996	17.81	10.23	1.66
	77.88	28.13	70.30	-0.00	0.0630	10.92	480.5	389.08	0.0646	504.6	9.083	17.98	10.38	1.66
	78.89	28.11	70.28	-0.00	0.0631	10.93	481.0	389.56	0.0647	507.1	9.129	18.07	10.45	1.66
	79.94	28.11	70.25	0.00	0.0632	10.95	481.6	390.22	0.0655	513.1	9.236	18.29	10.63	1.67
	80.87	28.11	70.28	0.00	0.0631	10.98	483.2	391.34	0.0654	520.8	9.374	18.56	10.85	1.66
	81.87	28.11	70.28	0.00	0.0631	10.92	480.4	389.12	0.0652	512.4	9.223	18.26	10.61	1.66
	82.88	28.11	70.25	0.00	0.0632	10.95	481.9	390.46	0.0657	515.5	9.279	18.38	10.70	1.66
	83.88	28.13	70.25	0.00	0.0631	10.95	481.8	390.39	0.0654	517.1	9.308	18.44	10.74	1.67
	84.90	28.11	70.28	-0.00	0.0630	10.92	480.4	389.07	0.0643	505.6	9.101	18.02	10.41	1.67
	85.96	28.10	70.28	0.00	0.0629	10.89	479.2	388.12	0.0644	502.6	9.047	17.91	10.32	1.67
	86.89	28.08	70.26	-0.00	0.0630	10.93	480.7	389.45	0.0645	504.6	9.083	17.99	10.37	1.67
	87.89	28.08	70.25	-0.00	0.0630	10.93	480.7	389.48	0.0654	515.8	9.284	18.39	10.70	1.67
	88.89	28.07	70.28	0.00	0.0631	10.93	480.8	389.37	0.0657	518.4	9.332	18.47	10.78	1.67
	89.89	28.10	70.28	-0.00	0.0629	10.91	480.2	388.94	0.0651	513.3	9.239	18.29	10.63	1.67
	90.87	28.08	70.28	0.00	0.0630	10.91	480.0	388.78	0.0650	512.7	9.229	18.27	10.61	1.67
	91.88	28.10	70.28	-0.00	0.0630	10.91	480.2	388.89	0.0649	510.6	9.190	18.20	10.55	1.67
	92.87	28.05	70.28	0.00	0.0629	10.89	479.1	388.00	0.0638	498.4	8.971	17.76	10.19	1.67
	93.88	28.04	70.28	-0.00	0.0628	10.87	478.3	387.35	0.0637	495.8	8.924	17.66	10.11	1.67
	94.86	28.06	70.28	0.00	0.0628	10.86	477.9	387.01	0.0640	498.0	8.965	17.75	10.18	1.67
	95.86	28.04	70.28	0.00	0.0628	10.87	478.4	387.41	0.0647	506.0	9.108	18.03	10.41	1.67
	96.88	28.02	70.31	0.00	0.0629	10.89	479.0	387.74	0.0648	509.8	9.176	18.16	10.52	1.67
	97.89	27.93	70.28	-0.00	0.0631	10.93	480.9	389.23	0.0656	517.6	9.316	18.43	10.75	1.67
	98.89	27.85	70.26	0.00	0.0630	10.91	480.2	388.74	0.0657	518.7	9.337	18.48	10.78	1.67
	99.87	27.77	70.28	0.00	0.0630	10.92	480.3	388.57	0.0656	518.1	9.325	18.44	10.75	1.67
	100.89	27.72	70.28	0.00	0.0628	10.87	478.4	386.98	0.0653	513.8	9.248	18.29	10.63	1.67
	101.88	27.66	70.28	0.00	0.0629	10.89	479.1	387.50	0.0660	521.7	9.391	18.56	10.85	1.67
	102.88	27.66	70.28	-0.00	0.0630	10.92	480.4	388.53	0.0660	523.9	9.431	18.64	10.92	1.67
	103.88	27.70	70.28	-0.00	0.0629	10.89	479.2	387.62	0.0659	520.2	9.364	18.51	10.81	1.67
	104.88	27.68	70.31	0.00	0.0628	10.86	478.0	386.43	0.0658	519.9	9.358	18.49	10.80	1.67
	105.86	27.70	70.30	0.00	0.0628	10.87	478.4	386.84	0.0662	521.8	9.392	18.56	10.86	1.67
	106.94	27.68	70.28	0.00	0.0629	10.89	479.1	387.49	0.0666	528.2	9.508	18.80	11.04	1.67
	107.89	27.65	70.28	-0.00	0.0630	10.91	479.9	388.07	0.0666	529.2	9.526	18.83	11.07	1.67
	108.87	27.66	70.23	-0.00	0.0630	10.89	479.3	387.90	0.0667	528.9	9.521	18.84	11.06	1.68
	109.90	27.72	70.28	-0.00	0.0630	10.91	480.2	388.48	0.0669	531.1	9.560	18.90	11.13	1.67
	110.87	27.80	70.28	0.00	0.0630	10.90	479.7	388.10	0.0668	528.9	9.521	18.83	11.07	1.67
	111.90	27.86	70.25	-0.00	0.0630	10.91	480.2	388.79	0.0664	528.1	9.506	18.81	11.05	1.67
	112.87	27.87	70.28	0.00	0.0629	10.89	479.1	387.78	0.0658	520.4	9.367	18.53	10.83	1.67
	113.90	27.88	70.28	-0.00	0.0628	10.87	478.2	387.05	0.0657	519.2	9.346	18.49	10.79	1.67
	114.86	27.93	70.25	0.00	0.0628	10.88	478.6	387.57	0.0656	516.8	9.303	18.41	10.73	1.68
	115.88	27.94	70.28	0.00	0.0629	10.88	478.9	387.65	0.0667	530.3	9.545	18.89	11.11	1.67
	116.88	27.97	70.28	-0.00	0.0628	10.88	478.6	387.44	0.0665	529.3	9.527	18.85	11.09	1.67
	117.89	27.98	70.28	-0.00	0.0630	10.90	479.7	388.33	0.0672	536.3	9.654	19.11	11.29	1.68
	118.86	28.02	70.30	0.00	0.0630	10.92	480.6	389.01	0.0670	536.4	9.656	19.10	11.29	1.68
	119.95	28.06	70.28	-0.00	0.0629	10.89	479.1	387.99	0.0670	533.5	9.604	19.01	11.21	1.68
	120.89	28.06	70.28	-0.00	0.0631	10.92	480.6	389.20	0.0675	538.7	9.697	19.20	11.36	1.68
	121.88	28.08	70.28	-0.00	0.0629	10.92	480.3	388.98	0.0668	534.1	9.614	19.03	11.23	1.68
	122.87	28.01	70.28	0.00	0.0631	10.88	478.8	387.68	0.0671	531.3	9.564	18.93	11.15	1.68
