Jul 25 2015 at 9:40:33
Frequency: 1.00Hz.
CO2
Zero:  Value:0.95  Date:18 Mar 2005	 at 07:22:33	
Span:  Value:1.00  Date:18 Mar 2005	 at 07:25:09	
H2O
Zero:  Value:0.71  Date:18 Mar 2005	 at 07:52:31	
Span:  Value:0.99  Date:18 Mar 2005	 at 11:44:01	
	Relative Time	Temperature	Pressure	Aux Input	CO2 Absorptance	CO2 mmol/m3	CO2 mg/m3	CO2 umol/mol	H2O Absorptance	H2O mmol/m3	H2O g/m3	H2O mmol/mol	H2O(°C)	Cooler Voltage
	0.22	17.89	67.81	-0.00	0.0598	10.34	454.8	368.82	0.0616	477.1	8.587	17.02	9.03	1.52
	1.22	17.87	67.81	0.00	0.0595	10.26	451.4	366.09	0.0627	495.9	8.926	17.69	9.60	1.52
	2.29	17.85	67.81	-0.00	0.0597	10.28	452.1	366.62	0.0617	486.1	8.749	17.34	9.30	1.52
	3.21	17.87	67.81	0.00	0.0600	10.35	455.2	369.18	0.0608	472.4	8.504	16.86	8.88	1.52
	4.23	17.87	67.83	-0.00	0.0600	10.34	455.2	369.01	0.0609	472.6	8.507	16.86	8.89	1.52
	5.21	17.89	67.83	0.00	0.0599	10.35	455.2	369.07	0.0608	475.3	8.556	16.96	8.97	1.52
	6.21	17.89	67.81	0.00	0.0605	10.44	459.5	372.62	0.0580	446.0	8.028	15.92	8.03	1.52
	7.22	17.90	67.81	0.00	0.0605	10.47	460.6	373.57	0.0582	438.8	7.898	15.66	7.79	1.52
	8.22	17.90	67.83	0.00	0.0606	10.49	461.6	374.27	0.0580	440.0	7.920	15.70	7.83	1.52
	9.22	17.90	67.83	0.00	0.0607	10.51	462.5	375.00	0.0570	435.1	7.832	15.52	7.67	1.52
	10.23	17.92	67.81	-0.00	0.0607	10.55	464.1	376.41	0.0562	419.7	7.555	14.98	7.14	1.52
	11.22	17.90	67.83	0.00	0.0608	10.54	463.6	375.87	0.0567	422.4	7.603	15.07	7.24	1.52
	12.21	17.90	67.83	0.00	0.0608	10.54	463.7	375.92	0.0558	419.2	7.546	14.95	7.12	1.52
	13.23	17.92	67.80	0.00	0.0608	10.54	463.7	376.10	0.0563	419.4	7.550	14.97	7.13	1.52
	14.21	17.89	67.83	0.00	0.0606	10.51	462.3	374.79	0.0575	434.1	7.813	15.48	7.63	1.52
	15.21	17.90	67.81	0.00	0.0608	10.53	463.3	375.75	0.0568	428.6	7.715	15.30	7.45	1.52
	16.22	17.90	67.81	0.00	0.0608	10.53	463.2	375.72	0.0562	422.6	7.607	15.08	7.24	1.52
	17.21	17.92	67.83	0.00	0.0609	10.55	464.4	376.56	0.0562	421.1	7.580	15.02	7.19	1.52
	18.22	17.92	67.81	0.00	0.0611	10.59	466.1	378.07	0.0565	422.1	7.597	15.06	7.22	1.52
	19.22	17.92	67.81	-0.00	0.0613	10.65	468.6	380.09	0.0571	430.8	7.754	15.37	7.52	1.52
	20.23	17.94	67.81	-0.00	0.0611	10.60	466.5	378.41	0.0564	424.2	7.636	15.14	7.30	1.52
	21.22	17.92	67.81	-0.00	0.0611	10.60	466.2	378.14	0.0565	423.7	7.627	15.12	7.28	1.52
	22.23	17.92	67.81	-0.00	0.0610	10.59	465.9	377.87	0.0564	424.5	7.641	15.15	7.31	1.52
	23.21	17.92	67.83	-0.00	0.0609	10.56	464.7	376.76	0.0565	425.3	7.655	15.17	7.34	1.52
	24.21	17.92	67.83	0.00	0.0609	10.56	464.6	376.66	0.0565	424.3	7.637	15.13	7.30	1.52
	25.23	17.92	67.81	0.00	0.0609	10.56	464.6	376.89	0.0566	425.7	7.662	15.19	7.35	1.52
	26.22	17.92	67.83	0.00	0.0609	10.56	464.4	376.57	0.0568	428.2	7.708	15.28	7.44	1.52
	27.22	17.92	67.81	0.00	0.0609	10.55	464.2	376.50	0.0568	427.9	7.703	15.27	7.43	1.52
	28.24	17.92	67.79	-0.00	0.0609	10.56	464.7	377.02	0.0568	427.2	7.689	15.25	7.40	1.52
	29.23	17.94	67.81	-0.00	0.0608	10.54	463.9	376.28	0.0569	429.0	7.722	15.31	7.46	1.52
	30.30	17.94	67.83	0.00	0.0608	10.53	463.4	375.79	0.0571	430.1	7.741	15.34	7.50	1.52
	31.22	17.94	67.83	0.00	0.0607	10.51	462.6	375.12	0.0570	429.8	7.736	15.33	7.49	1.52
	32.21	17.95	67.83	0.00	0.0609	10.55	464.0	376.28	0.0570	431.3	7.764	15.39	7.54	1.52
	33.23	17.94	67.81	-0.00	0.0609	10.57	465.0	377.16	0.0572	431.6	7.769	15.41	7.55	1.52
	34.21	17.97	67.81	0.00	0.0608	10.53	463.5	376.03	0.0571	431.6	7.769	15.41	7.56	1.52
	35.21	17.95	67.81	0.00	0.0610	10.58	465.7	377.76	0.0574	433.9	7.810	15.49	7.63	1.52
	36.21	17.95	67.81	0.00	0.0611	10.60	466.2	378.21	0.0568	429.4	7.729	15.33	7.48	1.52
	37.21	17.95	67.81	0.00	0.0610	10.58	465.6	377.68	0.0570	427.8	7.701	15.27	7.42	1.52
	38.22	17.94	67.83	0.00	0.0610	10.56	464.8	376.88	0.0575	434.1	7.814	15.49	7.64	1.52
	39.23	17.95	67.81	0.00	0.0608	10.54	463.6	376.05	0.0574	434.5	7.822	15.51	7.65	1.52
	40.23	17.97	67.83	-0.00	0.0607	10.53	463.3	375.71	0.0575	436.9	7.865	15.59	7.73	1.52
	41.23	17.94	67.81	0.00	0.0607	10.51	462.6	375.23	0.0575	436.3	7.853	15.57	7.71	1.52
	42.23	17.95	67.81	-0.00	0.0607	10.52	463.0	375.59	0.0579	438.7	7.896	15.66	7.79	1.52
	43.24	17.94	67.81	-0.00	0.0608	10.55	464.2	376.58	0.0579	439.9	7.919	15.70	7.83	1.52
	44.23	17.95	67.81	-0.00	0.0609	10.56	464.6	376.89	0.0579	441.1	7.940	15.74	7.87	1.52
	45.21	17.95	67.78	0.00	0.0609	10.55	464.4	376.85	0.0580	439.8	7.916	15.70	7.83	1.52
	46.22	17.95	67.81	-0.00	0.0609	10.55	464.4	376.73	0.0579	440.0	7.920	15.71	7.84	1.52
	47.21	17.95	67.81	0.00	0.0609	10.54	463.9	376.31	0.0578	438.8	7.899	15.66	7.80	1.52
	48.22	17.95	67.83	-0.00	0.0608	10.54	463.9	376.20	0.0581	442.2	7.960	15.78	7.91	1.52
	49.23	17.97	67.83	-0.00	0.0611	10.57	464.9	376.97	0.0582	442.4	7.963	15.79	7.92	1.52
	50.23	17.97	67.81	-0.00	0.0612	10.63	467.8	379.50	0.0587	449.4	8.090	16.04	8.15	1.52
	51.23	17.99	67.81	-0.00	0.0611	10.60	466.3	378.34	0.0581	442.9	7.972	15.81	7.93	1.52
	52.21	17.97	67.83	0.00	0.0609	10.57	465.3	377.33	0.0580	441.3	7.943	15.74	7.88	1.52
	53.20	17.99	67.78	0.00	0.0609	10.57	465.2	377.55	0.0582	442.8	7.970	15.81	7.93	1.52
	54.23	17.99	67.81	-0.00	0.0609	10.58	465.4	377.60	0.0583	442.8	7.970	15.80	7.93	1.52
	55.22	17.97	67.81	0.00	0.0608	10.54	463.6	376.11	0.0583	444.7	8.004	15.87	7.99	1.52
	56.22	17.99	67.81	0.00	0.0608	10.54	463.8	376.26	0.0579	441.1	7.941	15.75	7.88	1.52
	57.30	17.99	67.81	-0.00	0.0609	10.56	464.6	376.89	0.0580	441.7	7.950	15.77	7.89	1.52
	58.22	18.00	67.81	-0.00	0.0608	10.54	463.8	376.30	0.0577	438.2	7.887	15.64	7.78	1.52
	59.23	18.00	67.81	-0.00	0.0609	10.55	464.2	376.59	0.0578	438.5	7.894	15.66	7.79	1.52
	60.20	18.02	67.81	0.00	0.0609	10.55	464.3	376.69	0.0579	440.0	7.921	15.71	7.84	1.52
	61.23	18.00	67.81	-0.00	0.0609	10.56	464.8	377.11	0.0580	441.2	7.942	15.75	7.88	1.52
	62.23	18.00	67.81	-0.00	0.0609	10.55	464.4	376.80	0.0581	441.1	7.940	15.75	7.87	1.52
	63.23	18.00	67.81	-0.00	0.0609	10.57	465.0	377.29	0.0581	441.6	7.948	15.76	7.89	1.52
	64.22	18.00	67.83	-0.00	0.0608	10.55	464.2	376.45	0.0581	442.3	7.962	15.78	7.92	1.52
	65.22	18.00	67.83	-0.00	0.0609	10.57	464.9	377.07	0.0582	442.8	7.970	15.80	7.93	1.52
	66.22	18.00	67.81	0.00	0.0608	10.54	463.6	376.18	0.0583	444.2	7.995	15.86	7.98	1.52
	67.22	17.99	67.83	-0.00	0.0609	10.53	463.5	375.90	0.0581	441.5	7.947	15.75	7.89	1.52
	68.20	18.00	67.81	0.00	0.0608	10.54	463.7	376.25	0.0582	442.9	7.973	15.81	7.94	1.52
	69.22	18.00	67.81	-0.00	0.0608	10.54	463.8	376.27	0.0585	446.0	8.028	15.92	8.04	1.52
	70.20	18.00	67.83	0.00	0.0608	10.53	463.3	375.76	0.0583	444.2	7.996	15.85	7.98	1.52
	71.21	18.00	67.81	0.00	0.0608	10.54	463.7	376.23	0.0583	443.6	7.985	15.84	7.96	1.52
	72.21	18.00	67.81	0.00	0.0608	10.54	463.7	376.18	0.0583	444.0	7.993	15.85	7.97	1.52
	73.23	18.02	67.83	0.00	0.0608	10.54	464.0	376.32	0.0582	442.1	7.959	15.78	7.91	1.52
	74.22	18.00	67.81	-0.00	0.0608	10.53	463.5	376.08	0.0583	444.0	7.992	15.85	7.97	1.52
	75.24	18.02	67.81	-0.00	0.0608	10.55	464.0	376.52	0.0582	443.1	7.976	15.82	7.94	1.52
	76.21	18.00	67.81	0.00	0.0608	10.55	464.3	376.73	0.0581	442.3	7.962	15.79	7.92	1.52
	77.22	18.02	67.83	0.00	0.0607	10.53	463.3	375.78	0.0581	441.5	7.946	15.75	7.89	1.52
	78.28	18.02	67.81	0.00	0.0608	10.52	463.0	375.65	0.0579	438.8	7.898	15.67	7.80	1.52
	79.22	18.02	67.83	0.00	0.0608	10.52	463.0	375.56	0.0577	436.8	7.863	15.59	7.73	1.52
	80.22	18.02	67.83	0.00	0.0609	10.56	464.7	376.90	0.0583	443.6	7.986	15.83	7.96	1.52
	81.21	18.02	67.83	0.00	0.0610	10.56	464.8	376.98	0.0583	443.7	7.987	15.84	7.96	1.52
	82.23	18.04	67.81	-0.00	0.0610	10.58	465.4	377.65	0.0581	442.8	7.970	15.81	7.93	1.52
	83.23	18.03	67.81	-0.00	0.0608	10.55	464.2	376.62	0.0578	439.4	7.909	15.69	7.82	1.52
	84.22	18.05	67.81	-0.00	0.0608	10.54	463.7	376.29	0.0577	437.6	7.877	15.63	7.76	1.52
	85.22	18.07	67.81	0.00	0.0611	10.60	466.5	378.62	0.0581	442.2	7.960	15.79	7.92	1.52
	86.21	18.08	67.81	0.00	0.0610	10.59	465.8	378.00	0.0583	444.4	7.999	15.87	7.99	1.52
	87.22	18.07	67.81	0.00	0.0608	10.55	464.1	376.63	0.0580	441.1	7.939	15.75	7.88	1.52
	88.23	18.07	67.83	-0.00	0.0609	10.56	464.4	376.78	0.0581	440.9	7.935	15.74	7.87	1.52
	89.31	18.08	67.81	-0.00	0.0610	10.56	464.9	377.25	0.0582	442.8	7.970	15.81	7.94	1.52
	90.22	18.08	67.83	0.00	0.0609	10.57	465.0	377.23	0.0580	441.8	7.952	15.77	7.90	1.52
	91.21	18.10	67.81	0.00	0.0609	10.56	464.8	377.26	0.0581	442.6	7.966	15.81	7.93	1.52
	92.21	18.07	67.81	0.00	0.0609	10.56	464.7	377.15	0.0582	442.8	7.970	15.81	7.94	1.52
	93.23	18.10	67.81	-0.00	0.0609	10.55	464.3	376.84	0.0582	443.1	7.975	15.82	7.95	1.52
	94.22	18.10	67.78	-0.00	0.0609	10.57	465.0	377.56	0.0582	443.2	7.978	15.83	7.95	1.52
	95.21	18.10	67.81	0.00	0.0609	10.58	465.7	377.94	0.0583	444.1	7.995	15.86	7.98	1.52
	96.22	18.10	67.81	0.00	0.0609	10.57	465.1	377.45	0.0581	443.7	7.987	15.85	7.97	1.52
	97.22	18.10	67.81	0.00	0.0609	10.54	464.0	376.54	0.0579	440.2	7.923	15.72	7.85	1.52
	98.22	18.12	67.83	0.00	0.0610	10.56	464.6	376.92	0.0581	440.1	7.922	15.71	7.85	1.52
	99.20	18.12	67.81	0.00	0.0610	10.57	464.9	377.34	0.0580	440.2	7.923	15.72	7.85	1.52
	100.23	18.12	67.81	-0.00	0.0610	10.59	465.8	378.08	0.0581	442.2	7.960	15.79	7.92	1.52
	101.29	18.12	67.83	0.00	0.0610	10.58	465.7	377.83	0.0580	440.9	7.936	15.74	7.87	1.52
	102.23	18.12	67.83	-0.00	0.0611	10.56	464.6	376.97	0.0582	441.0	7.937	15.74	7.88	1.52
	103.23	18.13	67.86	0.00	0.0610	10.57	465.0	377.20	0.0581	441.9	7.954	15.77	7.91	1.52
	104.22	18.13	67.83	-0.00	0.0611	10.60	466.2	378.29	0.0582	443.2	7.978	15.82	7.95	1.52
	105.21	18.13	67.83	0.00	0.0610	10.60	466.4	378.47	0.0582	443.0	7.973	15.81	7.94	1.52
	106.20	18.12	67.81	0.00	0.0610	10.58	465.5	377.85	0.0583	443.9	7.990	15.85	7.97	1.52
	107.22	18.12	67.81	0.00	0.0610	10.59	466.0	378.22	0.0582	443.3	7.979	15.83	7.95	1.52
	108.22	18.15	67.81	0.00	0.0611	10.60	466.5	378.66	0.0581	442.9	7.973	15.82	7.94	1.52
	109.23	18.15	67.81	-0.00	0.0611	10.61	466.7	378.83	0.0582	443.2	7.978	15.83	7.95	1.52
	110.21	18.15	67.81	0.00	0.0611	10.60	466.5	378.65	0.0583	443.4	7.981	15.84	7.96	1.52
	111.21	18.17	67.81	0.00	0.0610	10.58	465.4	377.80	0.0583	443.8	7.988	15.85	7.97	1.52
	112.29	18.17	67.81	-0.00	0.0609	10.56	464.7	377.22	0.0583	443.8	7.989	15.85	7.97	1.52
	113.21	18.17	67.81	0.00	0.0610	10.58	465.5	377.90	0.0580	442.0	7.957	15.79	7.91	1.52
	114.24	18.17	67.83	-0.00	0.0611	10.61	466.7	378.71	0.0579	440.8	7.934	15.74	7.87	1.52
	115.21	18.15	67.81	0.00	0.0612	10.60	466.4	378.63	0.0578	438.2	7.887	15.65	7.78	1.52
	116.22	18.15	67.83	0.00	0.0611	10.60	466.5	378.51	0.0577	438.4	7.892	15.65	7.79	1.52
	117.22	18.18	67.83	-0.00	0.0611	10.59	466.0	378.17	0.0577	437.2	7.870	15.61	7.75	1.52
	118.22	18.17	67.81	-0.00	0.0612	10.61	466.8	378.96	0.0578	438.1	7.886	15.65	7.78	1.52
	119.22	18.15	67.81	-0.00	0.0612	10.62	467.4	379.43	0.0581	441.1	7.939	15.75	7.88	1.52
	120.21	18.17	67.78	0.00	0.0613	10.63	467.6	379.72	0.0579	441.2	7.942	15.77	7.89	1.52
	121.21	18.15	67.78	0.00	0.0612	10.62	467.2	379.41	0.0579	440.2	7.924	15.73	7.85	1.52
	122.29	18.15	67.83	0.00	0.0611	10.61	466.8	378.74	0.0579	439.3	7.907	15.68	7.82	1.52
	123.21	18.17	67.79	0.00	0.0612	10.63	467.8	379.87	0.0582	442.2	7.959	15.80	7.92	1.52
	124.22	18.17	67.83	0.00	0.0612	10.62	467.1	379.07	0.0580	440.7	7.932	15.73	7.87	1.52
	125.21	18.17	67.83	0.00	0.0611	10.61	466.7	378.71	0.0578	438.2	7.888	15.65	7.79	1.52
