Jul 25 2015 at 15:58:47
Frequency: 1.00Hz.
CO2
Zero:  Value:0.95  Date:18 Mar 2005	 at 07:22:33	
Span:  Value:1.00  Date:18 Mar 2005	 at 07:25:09	
H2O
Zero:  Value:0.71  Date:18 Mar 2005	 at 07:52:31	
Span:  Value:0.99  Date:18 Mar 2005	 at 11:44:01	
	Relative Time	Temperature	Pressure	Aux Input	CO2 Absorptance	CO2 mmol/m3	CO2 mg/m3	CO2 umol/mol	H2O Absorptance	H2O mmol/m3	H2O g/m3	H2O mmol/mol	H2O(°C)	Cooler Voltage
	0.25	33.77	67.70	-0.00	0.0608	10.55	464.3	397.73	0.0597	460.0	8.280	17.34	9.27	1.65
	1.23	33.82	67.73	0.00	0.0608	10.56	464.4	397.76	0.0598	460.9	8.296	17.37	9.31	1.65
	2.25	33.84	67.70	-0.00	0.0608	10.53	463.5	397.12	0.0596	460.2	8.284	17.35	9.28	1.65
	3.31	33.80	67.70	0.00	0.0609	10.56	464.7	398.08	0.0600	462.5	8.325	17.43	9.36	1.65
	4.23	33.88	67.72	0.00	0.0610	10.58	465.4	398.72	0.0608	471.9	8.495	17.79	9.66	1.65
	5.24	33.87	67.67	0.00	0.0609	10.57	464.9	398.57	0.0603	466.6	8.399	17.60	9.49	1.65
	6.22	33.90	67.70	0.00	0.0608	10.55	464.2	397.81	0.0602	465.8	8.384	17.56	9.47	1.65
	7.25	33.87	67.72	-0.00	0.0607	10.53	463.4	397.00	0.0599	465.0	8.370	17.53	9.44	1.65
	8.25	33.87	67.73	-0.00	0.0608	10.56	464.4	397.83	0.0608	471.7	8.491	17.78	9.65	1.65
	9.25	33.87	67.68	-0.00	0.0607	10.52	463.1	396.92	0.0601	464.6	8.363	17.52	9.43	1.65
	10.23	33.85	67.70	-0.00	0.0608	10.53	463.4	397.09	0.0611	477.0	8.585	17.98	9.82	1.65
	11.23	33.87	67.72	0.00	0.0607	10.53	463.1	396.71	0.0620	484.3	8.717	18.25	10.04	1.65
	12.25	33.85	67.72	-0.00	0.0607	10.51	462.6	396.24	0.0621	487.7	8.778	18.38	10.15	1.65
	13.23	33.79	67.73	0.00	0.0606	10.49	461.4	395.11	0.0620	487.2	8.770	18.36	10.13	1.65
	14.21	33.77	67.72	0.00	0.0606	10.49	461.6	395.24	0.0632	495.8	8.924	18.68	10.39	1.65
	15.26	33.79	67.73	0.00	0.0606	10.49	461.6	395.27	0.0633	504.0	9.072	18.99	10.64	1.65
	16.24	33.77	67.70	0.00	0.0605	10.47	460.8	394.75	0.0629	495.1	8.912	18.66	10.37	1.65
	17.24	33.84	67.75	-0.00	0.0606	10.47	460.9	394.60	0.0621	486.3	8.754	18.32	10.11	1.65
	18.24	33.79	67.70	-0.00	0.0605	10.47	460.5	394.51	0.0614	479.6	8.632	18.08	9.89	1.65
	19.23	33.79	67.70	0.00	0.0606	10.48	461.0	394.95	0.0618	480.1	8.641	18.10	9.91	1.65
	20.23	33.77	67.73	-0.00	0.0604	10.48	461.3	395.00	0.0630	500.4	9.007	18.85	10.53	1.65
	21.23	33.73	67.70	-0.00	0.0604	10.47	460.8	394.64	0.0635	501.9	9.033	18.91	10.57	1.65
	22.23	33.80	67.68	0.00	0.0604	10.46	460.3	394.50	0.0626	493.8	8.889	18.62	10.33	1.65
	23.23	33.74	67.68	0.00	0.0604	10.46	460.1	394.26	0.0630	497.2	8.950	18.75	10.43	1.65
	24.23	33.77	67.68	0.00	0.0604	10.46	460.3	394.47	0.0628	495.2	8.913	18.67	10.37	1.65
	25.24	33.82	67.70	-0.00	0.0603	10.44	459.3	393.48	0.0622	487.5	8.774	18.38	10.14	1.65
	26.24	33.84	67.70	0.00	0.0604	10.45	459.8	393.95	0.0633	500.7	9.012	18.88	10.54	1.65
	27.24	33.83	67.70	-0.00	0.0603	10.43	458.9	393.20	0.0643	510.1	9.183	19.23	10.82	1.65
	28.24	33.85	67.68	-0.00	0.0604	10.42	458.6	393.07	0.0657	512.4	9.224	19.33	10.89	1.65
	29.25	33.77	67.70	-0.00	0.0602	10.41	458.2	392.51	0.0661	527.4	9.492	19.88	11.32	1.65
	30.23	33.85	67.70	0.00	0.0601	10.41	457.8	392.29	0.0677	549.6	9.892	20.72	11.95	1.65
	31.23	33.88	67.72	-0.00	0.0602	10.42	458.6	392.82	0.0677	554.2	9.976	20.89	12.08	1.65
	32.25	33.83	67.70	-0.00	0.0602	10.41	457.9	392.29	0.0680	558.2	10.047	21.04	12.18	1.65
	33.23	33.85	67.70	0.00	0.0602	10.40	457.5	392.00	0.0660	538.9	9.700	20.32	11.65	1.65
	34.30	33.87	67.72	0.00	0.0603	10.43	459.1	393.22	0.0653	523.6	9.424	19.73	11.21	1.65
	35.24	33.86	67.72	-0.00	0.0603	10.42	458.4	392.63	0.0663	525.7	9.463	19.81	11.28	1.65
	36.24	33.80	67.70	-0.00	0.0602	10.42	458.6	392.84	0.0673	554.7	9.985	20.91	12.09	1.65
	37.22	33.84	67.68	0.00	0.0602	10.42	458.4	392.93	0.0666	544.7	9.805	20.54	11.81	1.65
	38.22	33.81	67.68	0.00	0.0603	10.42	458.3	392.78	0.0668	541.0	9.739	20.40	11.71	1.65
	39.23	33.81	67.68	0.00	0.0602	10.41	458.0	392.56	0.0673	543.9	9.789	20.51	11.79	1.65
	40.23	33.81	67.70	0.00	0.0602	10.40	457.6	392.08	0.0671	543.7	9.786	20.49	11.78	1.65
	41.25	33.78	67.70	-0.00	0.0602	10.41	458.0	392.35	0.0678	551.4	9.926	20.78	12.00	1.65
	42.23	33.79	67.70	0.00	0.0602	10.41	458.1	392.42	0.0685	561.9	10.114	21.18	12.28	1.65
	43.24	33.84	67.71	0.00	0.0600	10.38	456.8	391.32	0.0686	562.1	10.117	21.19	12.29	1.65
	44.24	33.82	67.70	-0.00	0.0601	10.38	456.7	391.24	0.0688	563.8	10.148	21.25	12.33	1.65
	45.23	33.81	67.70	0.00	0.0601	10.39	457.0	391.55	0.0682	557.0	10.025	21.00	12.15	1.65
	46.22	33.81	67.70	0.00	0.0600	10.37	456.3	390.93	0.0682	556.4	10.015	20.98	12.13	1.65
	47.24	33.79	67.72	0.00	0.0601	10.38	456.7	391.10	0.0682	558.2	10.048	21.03	12.18	1.65
	48.24	33.71	67.70	0.00	0.0600	10.37	456.4	390.83	0.0681	555.0	9.990	20.91	12.09	1.65
	49.22	33.62	67.68	0.00	0.0601	10.38	456.9	391.32	0.0682	557.1	10.027	20.99	12.14	1.65
	50.23	33.53	67.68	0.00	0.0601	10.38	456.8	391.16	0.0684	559.7	10.075	21.09	12.21	1.65
	51.23	33.64	67.70	0.00	0.0600	10.37	456.1	390.50	0.0683	560.3	10.086	21.11	12.23	1.65
	52.21	33.62	67.70	0.00	0.0600	10.37	456.3	390.70	0.0683	558.8	10.059	21.05	12.19	1.65
	53.23	33.68	67.68	0.00	0.0600	10.34	455.0	389.79	0.0691	562.5	10.125	21.20	12.29	1.65
	54.24	33.67	67.70	0.00	0.0600	10.36	455.7	390.23	0.0687	565.6	10.181	21.31	12.37	1.65
	55.24	33.70	67.70	-0.00	0.0599	10.34	455.1	389.77	0.0695	567.3	10.212	21.38	12.42	1.65
	56.24	33.72	67.73	0.00	0.0600	10.36	455.6	390.09	0.0694	573.4	10.320	21.60	12.58	1.65
	57.25	33.66	67.73	0.00	0.0599	10.33	454.5	389.02	0.0710	592.4	10.663	22.31	13.08	1.65
	58.23	33.68	67.70	0.00	0.0601	10.38	456.8	391.22	0.0699	574.2	10.335	21.64	12.61	1.65
	59.25	33.66	67.70	-0.00	0.0600	10.35	455.2	389.78	0.0716	596.3	10.734	22.47	13.18	1.65
	60.25	33.73	67.70	-0.00	0.0599	10.35	455.6	390.23	0.0707	586.2	10.551	22.09	12.92	1.65
	61.23	33.71	67.70	0.00	0.0597	10.30	453.4	388.31	0.0716	597.5	10.754	22.52	13.21	1.65
	62.21	33.75	67.70	0.00	0.0598	10.31	453.8	388.67	0.0717	601.3	10.823	22.66	13.31	1.65
	63.23	33.73	67.70	0.00	0.0597	10.30	453.4	388.32	0.0709	592.1	10.659	22.32	13.08	1.65
	64.23	33.73	67.65	0.00	0.0597	10.31	453.5	388.68	0.0708	588.4	10.591	22.19	12.98	1.65
	65.22	33.73	67.70	0.00	0.0597	10.31	453.5	388.39	0.0706	586.6	10.559	22.11	12.93	1.65
	66.24	33.73	67.70	0.00	0.0598	10.31	453.5	388.46	0.0706	587.5	10.575	22.14	12.96	1.65
	67.22	33.75	67.72	0.00	0.0599	10.34	454.9	389.48	0.0700	576.7	10.381	21.73	12.68	1.65
	68.22	33.75	67.73	0.00	0.0599	10.35	455.3	389.85	0.0700	580.3	10.446	21.86	12.77	1.65
	69.25	33.78	67.70	-0.00	0.0600	10.35	455.2	389.93	0.0701	578.6	10.415	21.81	12.73	1.65
	70.23	33.76	67.70	0.00	0.0600	10.38	456.9	391.40	0.0700	582.7	10.489	21.96	12.83	1.65
	71.23	33.78	67.70	0.00	0.0600	10.37	456.3	390.88	0.0697	576.4	10.376	21.73	12.67	1.65
	72.23	33.78	67.68	-0.00	0.0600	10.37	456.1	390.88	0.0695	574.1	10.334	21.65	12.61	1.65
	73.24	33.77	67.72	-0.00	0.0600	10.35	455.4	390.00	0.0693	570.1	10.261	21.48	12.50	1.65
	74.22	33.79	67.70	-0.00	0.0600	10.36	456.0	390.60	0.0694	572.6	10.306	21.58	12.57	1.65
	75.22	33.82	67.70	0.00	0.0600	10.36	456.0	390.66	0.0702	580.9	10.456	21.90	12.79	1.65
	76.24	33.79	67.70	-0.00	0.0600	10.37	456.3	390.90	0.0701	581.0	10.458	21.90	12.79	1.65
	77.24	33.83	67.70	0.00	0.0599	10.35	455.2	390.03	0.0703	578.6	10.415	21.81	12.73	1.65
	78.23	33.80	67.68	0.00	0.0600	10.37	456.1	390.92	0.0713	593.4	10.681	22.38	13.11	1.65
	79.30	33.86	67.72	0.00	0.0598	10.34	454.8	389.54	0.0711	594.7	10.705	22.41	13.15	1.65
	80.23	33.81	67.68	0.00	0.0599	10.35	455.6	390.48	0.0712	592.5	10.664	22.34	13.09	1.65
	81.23	33.80	67.70	0.00	0.0599	10.33	454.7	389.59	0.0703	584.5	10.521	22.03	12.88	1.65
	82.23	33.83	67.70	-0.00	0.0598	10.32	454.0	388.98	0.0707	587.7	10.579	22.16	12.97	1.65
	83.21	33.80	67.70	0.00	0.0598	10.33	454.4	389.27	0.0705	584.5	10.521	22.03	12.88	1.65
	84.22	33.77	67.68	0.00	0.0598	10.32	454.2	389.26	0.0720	600.6	10.811	22.65	13.30	1.65
	85.24	33.77	67.70	0.00	0.0598	10.32	454.2	389.07	0.0722	606.5	10.917	22.86	13.45	1.65
	86.24	33.76	67.68	0.00	0.0597	10.30	453.4	388.49	0.0720	603.5	10.863	22.75	13.37	1.65
	87.22	33.77	67.70	0.00	0.0597	10.30	453.3	388.31	0.0718	601.4	10.824	22.67	13.32	1.65
	88.23	33.84	67.70	0.00	0.0597	10.31	453.7	388.74	0.0719	603.9	10.870	22.77	13.38	1.66
	89.23	33.82	67.70	0.00	0.0597	10.30	453.1	388.20	0.0720	604.3	10.877	22.78	13.39	1.65
	90.23	33.78	67.72	0.00	0.0597	10.30	453.1	388.01	0.0719	603.9	10.871	22.75	13.38	1.65
	91.23	33.82	67.70	0.00	0.0597	10.30	453.0	388.12	0.0720	604.4	10.879	22.79	13.40	1.65
	92.23	33.82	67.68	0.00	0.0597	10.30	453.3	388.54	0.0720	605.0	10.890	22.81	13.41	1.65
	93.23	33.80	67.70	0.00	0.0597	10.31	453.4	388.43	0.0723	606.9	10.924	22.88	13.46	1.65
	94.24	33.76	67.70	-0.00	0.0598	10.32	453.9	388.76	0.0722	607.8	10.941	22.91	13.48	1.65
	95.24	33.82	67.68	0.00	0.0598	10.30	453.4	388.61	0.0721	605.3	10.895	22.83	13.42	1.65
	96.24	33.82	67.70	-0.00	0.0598	10.30	453.3	388.42	0.0723	606.7	10.920	22.87	13.45	1.65
	97.24	33.82	67.68	0.00	0.0598	10.31	453.6	388.76	0.0726	611.2	11.002	23.05	13.57	1.65
	98.23	33.82	67.70	0.00	0.0597	10.29	452.9	387.99	0.0719	601.5	10.828	22.68	13.32	1.65
	99.31	33.80	67.70	-0.00	0.0597	10.30	453.2	388.27	0.0721	604.8	10.887	22.80	13.41	1.65
	100.25	33.78	67.70	-0.00	0.0597	10.30	453.2	388.25	0.0719	604.8	10.887	22.80	13.40	1.65
	101.23	33.73	67.75	0.00	0.0597	10.31	453.6	388.26	0.0720	606.2	10.911	22.83	13.44	1.65
	102.23	33.76	67.72	0.00	0.0597	10.30	453.4	388.24	0.0722	606.6	10.919	22.85	13.45	1.65
	103.24	33.73	67.70	0.00	0.0596	10.29	452.7	387.72	0.0724	609.0	10.963	22.95	13.51	1.65
	104.24	33.71	67.68	-0.00	0.0597	10.28	452.5	387.69	0.0722	605.2	10.894	22.82	13.41	1.65
	105.24	33.71	67.70	0.00	0.0596	10.26	451.5	386.65	0.0721	603.4	10.862	22.74	13.37	1.65
	106.24	33.73	67.73	0.00	0.0598	10.31	453.7	388.41	0.0725	611.5	11.007	23.04	13.57	1.65
	107.22	33.75	67.73	0.00	0.0596	10.28	452.2	387.18	0.0722	607.0	10.927	22.87	13.46	1.65
	108.23	33.76	67.73	-0.00	0.0597	10.30	453.0	387.89	0.0722	606.8	10.922	22.86	13.45	1.65
	109.23	33.75	67.72	0.00	0.0597	10.30	453.2	388.04	0.0722	605.0	10.889	22.79	13.41	1.65
	110.23	33.66	67.70	-0.00	0.0597	10.30	453.2	388.05	0.0726	610.4	10.987	23.00	13.54	1.65
	111.21	33.66	67.72	0.00	0.0598	10.32	454.0	388.60	0.0724	608.8	10.959	22.93	13.50	1.65
	112.26	33.60	67.68	-0.00	0.0597	10.30	453.4	388.34	0.0723	608.4	10.952	22.93	13.49	1.65
	113.32	33.61	67.68	-0.00	0.0596	10.29	452.6	387.62	0.0723	608.1	10.946	22.92	13.48	1.65
	114.24	33.58	67.68	-0.00	0.0596	10.27	451.9	386.98	0.0732	617.6	11.117	23.27	13.72	1.65
	115.25	33.56	67.68	0.00	0.0596	10.27	452.1	387.15	0.0730	617.2	11.110	23.26	13.71	1.65
	116.24	33.59	67.72	0.00	0.0597	10.29	452.6	387.35	0.0729	614.4	11.059	23.14	13.64	1.65
	117.31	33.56	67.70	0.00	0.0596	10.28	452.3	387.17	0.0730	616.6	11.099	23.22	13.69	1.65
	118.31	33.54	67.70	0.00	0.0596	10.27	451.9	386.78	0.0734	620.6	11.171	23.37	13.79	1.65
	119.23	33.55	67.70	0.00	0.0597	10.27	451.8	386.72	0.0737	625.9	11.267	23.58	13.92	1.65
	120.23	33.54	67.68	0.00	0.0596	10.27	452.0	387.08	0.0739	627.3	11.291	23.63	13.95	1.65
	121.21	33.52	67.73	0.00	0.0596	10.27	451.8	386.58	0.0739	627.0	11.287	23.60	13.95	1.65
	122.24	33.44	67.70	0.00	0.0596	10.26	451.6	386.44	0.0739	629.4	11.329	23.70	14.00	1.65
	123.30	33.35	67.70	-0.00	0.0595	10.23	450.2	385.10	0.0741	626.9	11.284	23.59	13.93	1.65
