Jul 25 2015 at 16:36:27
Frequency: 1.00Hz.
CO2
Zero:  Value:0.95  Date:18 Mar 2005	 at 07:22:33	
Span:  Value:1.00  Date:18 Mar 2005	 at 07:25:09	
H2O
Zero:  Value:0.71  Date:18 Mar 2005	 at 07:52:31	
Span:  Value:0.99  Date:18 Mar 2005	 at 11:44:01	
	Relative Time	Temperature	Pressure	Aux Input	CO2 Absorptance	CO2 mmol/m3	CO2 mg/m3	CO2 umol/mol	H2O Absorptance	H2O mmol/m3	H2O g/m3	H2O mmol/mol	H2O(°C)	Cooler Voltage
	0.38	33.74	67.68	0.00	0.0597	10.31	453.5	388.57	0.0757	652.2	11.740	24.59	14.57	1.69
	1.36	33.80	67.68	0.00	0.0597	10.30	453.1	388.31	0.0755	649.8	11.696	24.50	14.51	1.69
	2.37	33.76	67.68	0.00	0.0596	10.25	451.2	386.64	0.0752	643.2	11.578	24.25	14.35	1.69
	3.37	33.76	67.65	0.00	0.0596	10.27	451.8	387.27	0.0749	640.2	11.523	24.15	14.28	1.69
	4.38	33.77	67.68	0.00	0.0597	10.30	453.1	388.26	0.0749	640.7	11.533	24.16	14.29	1.69
	5.37	33.84	67.70	0.00	0.0596	10.29	452.7	387.92	0.0748	632.7	11.389	23.86	14.10	1.69
	6.40	33.84	67.70	-0.00	0.0595	10.27	451.8	387.10	0.0741	632.0	11.377	23.83	14.08	1.69
	7.38	33.84	67.67	0.00	0.0597	10.30	453.0	388.34	0.0733	620.9	11.176	23.42	13.81	1.69
	8.38	33.83	67.70	-0.00	0.0598	10.32	454.2	389.11	0.0732	620.6	11.170	23.39	13.80	1.69
	9.39	33.87	67.70	-0.00	0.0598	10.33	454.4	389.37	0.0724	607.8	10.941	22.92	13.49	1.69
	10.39	33.90	67.68	-0.00	0.0598	10.32	454.3	389.45	0.0728	611.5	11.006	23.06	13.58	1.69
	11.37	33.90	67.68	0.00	0.0598	10.31	453.7	388.98	0.0733	621.7	11.190	23.45	13.83	1.69
	12.37	33.85	67.70	0.00	0.0598	10.32	454.1	389.07	0.0732	620.3	11.165	23.39	13.80	1.69
	13.38	33.87	67.68	-0.00	0.0598	10.31	453.7	388.93	0.0732	619.0	11.142	23.35	13.77	1.69
	14.38	33.87	67.70	0.00	0.0597	10.30	453.3	388.49	0.0728	617.3	11.112	23.28	13.72	1.69
	15.38	33.92	67.67	-0.00	0.0599	10.34	454.8	389.91	0.0717	601.2	10.822	22.68	13.32	1.69
	16.38	33.90	67.67	0.00	0.0600	10.35	455.4	390.44	0.0708	592.0	10.657	22.33	13.08	1.69
	17.38	33.92	67.67	0.00	0.0601	10.38	456.7	391.57	0.0714	596.2	10.732	22.49	13.19	1.69
	18.38	34.01	67.65	-0.00	0.0601	10.39	457.1	392.18	0.0714	595.6	10.721	22.48	13.18	1.69
	19.36	34.05	67.67	0.00	0.0602	10.39	457.2	392.15	0.0714	596.9	10.744	22.53	13.22	1.69
	20.39	34.00	67.70	-0.00	0.0600	10.37	456.2	391.06	0.0708	592.0	10.657	22.33	13.09	1.69
	21.39	33.94	67.67	-0.00	0.0601	10.37	456.5	391.41	0.0713	593.2	10.677	22.38	13.11	1.69
	22.37	33.96	67.68	0.00	0.0601	10.39	457.2	392.04	0.0711	593.6	10.684	22.39	13.13	1.69
	23.39	33.95	67.68	-0.00	0.0601	10.38	456.8	391.67	0.0711	593.0	10.674	22.37	13.11	1.69
	24.38	33.85	67.70	-0.00	0.0601	10.38	456.9	391.45	0.0710	590.8	10.634	22.27	13.05	1.69
	25.38	33.81	67.67	-0.00	0.0601	10.39	457.3	391.97	0.0711	593.2	10.678	22.37	13.11	1.69
	26.36	33.79	67.70	0.00	0.0601	10.38	456.8	391.31	0.0708	591.3	10.644	22.29	13.06	1.69
	27.36	33.77	67.68	0.00	0.0601	10.39	457.0	391.60	0.0705	585.4	10.538	22.07	12.91	1.69
	28.39	33.75	67.70	0.00	0.0602	10.39	457.3	391.73	0.0705	586.1	10.549	22.09	12.92	1.69
	29.39	33.64	67.65	-0.00	0.0602	10.39	457.1	391.71	0.0704	583.7	10.506	22.01	12.85	1.69
	30.37	33.60	67.68	0.00	0.0601	10.38	456.9	391.31	0.0702	581.9	10.475	21.93	12.81	1.69
	31.37	33.58	67.68	0.00	0.0602	10.40	457.5	391.79	0.0704	583.6	10.505	21.99	12.85	1.69
	32.39	33.59	67.65	0.00	0.0602	10.41	458.0	392.35	0.0703	583.5	10.503	22.00	12.85	1.69
	33.37	33.55	67.65	0.00	0.0602	10.39	457.3	391.72	0.0701	579.4	10.430	21.84	12.74	1.69
	34.37	33.60	67.68	0.00	0.0601	10.40	457.4	391.77	0.0698	578.6	10.414	21.80	12.72	1.69
	35.37	33.65	67.67	-0.00	0.0602	10.41	458.1	392.41	0.0697	577.3	10.391	21.76	12.69	1.69
	36.40	33.67	67.70	0.00	0.0602	10.42	458.5	392.61	0.0696	575.5	10.359	21.68	12.64	1.69
	37.39	33.69	67.70	-0.00	0.0602	10.42	458.6	392.73	0.0698	576.8	10.382	21.73	12.67	1.69
	38.38	33.66	67.68	0.00	0.0603	10.42	458.4	392.73	0.0698	574.2	10.336	21.64	12.60	1.69
	39.36	33.73	67.68	0.00	0.0604	10.43	459.1	393.36	0.0691	572.5	10.306	21.58	12.56	1.69
	40.39	33.73	67.68	-0.00	0.0603	10.44	459.2	393.49	0.0680	563.9	10.150	21.26	12.33	1.69
	41.37	33.71	67.68	0.00	0.0603	10.42	458.4	392.72	0.0673	553.8	9.968	20.87	12.05	1.69
	42.37	33.73	67.70	-0.00	0.0604	10.45	459.9	393.96	0.0644	524.8	9.446	19.78	11.24	1.69
	43.38	33.71	67.68	-0.00	0.0603	10.43	459.0	393.25	0.0656	527.3	9.491	19.88	11.31	1.69
	44.38	33.66	67.68	0.00	0.0603	10.42	458.5	392.77	0.0661	532.9	9.593	20.09	11.47	1.69
	45.38	33.71	67.70	0.00	0.0602	10.41	458.3	392.47	0.0665	536.9	9.665	20.23	11.59	1.69
	46.44	33.73	67.70	0.00	0.0603	10.42	458.4	392.66	0.0651	521.3	9.383	19.65	11.14	1.69
	47.38	33.68	67.68	0.00	0.0603	10.42	458.6	392.89	0.0665	535.2	9.634	20.17	11.54	1.69
	48.39	33.71	67.68	0.00	0.0602	10.41	458.1	392.47	0.0671	543.6	9.785	20.49	11.77	1.69
	49.38	33.71	67.65	-0.00	0.0603	10.42	458.6	393.09	0.0676	547.4	9.854	20.65	11.88	1.69
	50.39	33.68	67.68	-0.00	0.0603	10.42	458.5	392.79	0.0668	541.4	9.745	20.41	11.71	1.69
	51.39	33.78	67.70	-0.00	0.0603	10.42	458.4	392.74	0.0659	530.6	9.551	20.00	11.41	1.69
	52.39	33.71	67.70	0.00	0.0603	10.43	458.8	392.98	0.0675	546.4	9.835	20.59	11.85	1.69
	53.37	33.72	67.68	0.00	0.0603	10.43	458.8	393.09	0.0681	556.0	10.007	20.96	12.12	1.69
	54.38	33.76	67.68	-0.00	0.0602	10.42	458.6	392.99	0.0684	561.0	10.098	21.15	12.26	1.69
	55.46	33.75	67.68	0.00	0.0604	10.43	459.1	393.41	0.0684	560.0	10.080	21.11	12.23	1.69
	56.44	33.72	67.70	0.00	0.0603	10.43	459.0	393.15	0.0681	557.3	10.031	21.00	12.15	1.69
	57.38	33.76	67.70	-0.00	0.0603	10.43	458.8	393.03	0.0680	554.5	9.981	20.90	12.08	1.69
	58.36	33.78	67.70	0.00	0.0603	10.43	459.1	393.27	0.0681	556.9	10.023	20.99	12.14	1.69
	59.37	33.77	67.67	0.00	0.0602	10.42	458.3	392.76	0.0676	551.4	9.926	20.79	11.99	1.69
	60.37	33.81	67.70	0.00	0.0604	10.44	459.4	393.62	0.0685	554.7	9.985	20.91	12.09	1.69
	61.37	33.83	67.65	0.00	0.0603	10.43	458.8	393.41	0.0670	541.7	9.751	20.44	11.73	1.69
	62.40	33.81	67.70	-0.00	0.0602	10.41	458.2	392.61	0.0658	528.1	9.506	19.91	11.34	1.69
	63.45	33.81	67.68	0.00	0.0604	10.44	459.6	393.86	0.0687	560.5	10.090	21.14	12.25	1.69
	64.37	33.81	67.68	0.00	0.0604	10.44	459.2	393.59	0.0691	565.1	10.172	21.31	12.37	1.69
	65.40	33.83	67.68	0.00	0.0604	10.44	459.5	393.83	0.0693	571.0	10.279	21.54	12.53	1.69
	66.38	33.86	67.65	0.00	0.0603	10.43	459.0	393.57	0.0690	565.5	10.179	21.34	12.38	1.69
	67.36	33.83	67.70	0.00	0.0603	10.44	459.3	393.53	0.0689	566.0	10.187	21.34	12.39	1.69
	68.38	33.91	67.68	0.00	0.0603	10.43	459.0	393.49	0.0686	561.9	10.114	21.20	12.29	1.69
	69.37	33.92	67.72	0.00	0.0603	10.43	459.0	393.25	0.0686	559.7	10.074	21.10	12.23	1.69
	70.39	33.88	67.67	0.00	0.0603	10.43	458.8	393.35	0.0690	567.9	10.223	21.42	12.45	1.69
	71.37	33.82	67.67	0.00	0.0603	10.43	459.0	393.44	0.0696	573.0	10.313	21.61	12.58	1.69
	72.39	33.86	67.65	-0.00	0.0603	10.44	459.4	393.98	0.0694	574.6	10.343	21.68	12.63	1.69
	73.38	33.87	67.70	0.00	0.0603	10.44	459.4	393.66	0.0686	565.5	10.180	21.32	12.38	1.69
	74.38	33.92	67.68	-0.00	0.0604	10.44	459.6	394.01	0.0686	563.5	10.142	21.26	12.33	1.69
	75.38	33.92	67.65	-0.00	0.0603	10.42	458.6	393.37	0.0680	551.9	9.933	20.83	12.01	1.69
	76.46	33.95	67.68	-0.00	0.0603	10.43	458.8	393.41	0.0693	569.0	10.242	21.47	12.48	1.69
	77.38	33.92	67.70	-0.00	0.0603	10.43	458.7	393.18	0.0695	573.0	10.314	21.61	12.59	1.69
	78.36	33.92	67.70	0.00	0.0604	10.45	459.9	394.13	0.0700	577.8	10.400	21.79	12.71	1.69
	79.39	33.91	67.70	-0.00	0.0604	10.46	460.0	394.28	0.0710	592.1	10.658	22.33	13.09	1.69
	80.39	33.87	67.65	0.00	0.0604	10.44	459.5	394.07	0.0700	578.1	10.405	21.81	12.72	1.69
	81.37	33.88	67.72	0.00	0.0603	10.43	459.1	393.29	0.0704	582.1	10.478	21.94	12.82	1.69
	82.37	33.85	67.72	0.00	0.0604	10.45	460.0	393.98	0.0715	596.3	10.734	22.47	13.19	1.69
	83.38	33.87	67.68	0.00	0.0604	10.44	459.6	393.96	0.0719	603.6	10.864	22.76	13.38	1.69
	84.37	33.85	67.68	0.00	0.0603	10.42	458.6	393.06	0.0720	600.2	10.804	22.64	13.29	1.69
	85.36	33.88	67.70	0.00	0.0603	10.43	459.1	393.45	0.0719	602.6	10.847	22.72	13.35	1.69
	86.39	33.90	67.70	0.00	0.0603	10.42	458.4	392.90	0.0716	597.1	10.749	22.52	13.22	1.69
	87.38	33.90	67.68	0.00	0.0602	10.41	458.2	392.85	0.0714	599.5	10.792	22.62	13.28	1.69
	88.36	33.90	67.70	0.00	0.0601	10.39	457.3	391.89	0.0701	581.9	10.475	21.94	12.82	1.69
	89.37	33.87	67.70	0.00	0.0602	10.40	457.6	392.14	0.0707	584.8	10.526	22.05	12.89	1.69
	90.37	33.88	67.68	-0.00	0.0602	10.40	457.8	392.44	0.0707	588.6	10.595	22.20	12.99	1.69
	91.37	33.83	67.68	-0.00	0.0603	10.42	458.3	392.82	0.0711	589.7	10.615	22.24	13.02	1.69
	92.37	33.87	67.68	0.00	0.0602	10.41	458.2	392.80	0.0710	594.4	10.699	22.42	13.14	1.69
	93.37	33.80	67.70	0.00	0.0602	10.40	457.8	392.20	0.0709	590.5	10.629	22.26	13.04	1.69
	94.36	33.86	67.65	-0.00	0.0602	10.41	458.1	392.78	0.0720	600.2	10.804	22.65	13.29	1.69
	95.39	33.87	67.65	0.00	0.0602	10.40	457.7	392.52	0.0719	602.2	10.839	22.72	13.34	1.69
	96.38	33.92	67.70	0.00	0.0602	10.41	457.8	392.41	0.0721	603.7	10.867	22.77	13.38	1.69
	97.38	33.90	67.68	-0.00	0.0601	10.40	457.5	392.25	0.0719	605.3	10.895	22.83	13.42	1.69
	98.38	33.83	67.65	0.00	0.0602	10.40	457.5	392.27	0.0717	602.6	10.847	22.73	13.35	1.69
	99.37	33.81	67.67	0.00	0.0602	10.39	457.2	391.87	0.0725	605.4	10.898	22.83	13.42	1.69
	100.37	33.83	67.65	0.00	0.0602	10.41	458.2	392.85	0.0730	617.0	11.107	23.28	13.71	1.69
	101.39	33.84	67.70	0.00	0.0602	10.41	457.9	392.33	0.0732	620.1	11.163	23.38	13.79	1.69
	102.38	33.76	67.67	-0.00	0.0601	10.39	457.3	391.88	0.0727	613.6	11.045	23.14	13.63	1.69
	103.37	33.77	67.68	0.00	0.0602	10.41	458.2	392.61	0.0742	631.7	11.370	23.82	14.07	1.69
	104.38	33.69	67.68	0.00	0.0602	10.40	457.5	391.96	0.0742	634.1	11.414	23.90	14.13	1.69
	105.38	33.73	67.68	-0.00	0.0602	10.40	457.7	392.18	0.0738	628.2	11.308	23.68	13.99	1.69
	106.38	33.73	67.68	-0.00	0.0601	10.39	457.0	391.57	0.0731	617.0	11.106	23.26	13.71	1.69
	107.39	33.78	67.70	-0.00	0.0601	10.39	457.1	391.55	0.0732	616.7	11.100	23.25	13.70	1.69
	108.39	33.81	67.70	-0.00	0.0602	10.41	457.8	392.26	0.0738	626.9	11.284	23.63	13.96	1.69
	109.36	33.79	67.70	0.00	0.0602	10.41	457.9	392.28	0.0735	624.2	11.236	23.53	13.89	1.69
	110.39	33.84	67.68	-0.00	0.0601	10.38	456.8	391.51	0.0732	620.1	11.161	23.38	13.79	1.69
	111.39	33.82	67.67	0.00	0.0602	10.41	457.9	392.46	0.0735	623.3	11.220	23.51	13.87	1.69
	112.38	33.79	67.67	-0.00	0.0601	10.39	457.1	391.75	0.0733	620.4	11.168	23.40	13.80	1.69
	113.40	33.79	67.68	-0.00	0.0601	10.37	456.4	391.15	0.0736	622.9	11.212	23.49	13.86	1.69
	114.46	33.82	67.68	-0.00	0.0602	10.38	456.8	391.48	0.0739	628.4	11.311	23.70	13.99	1.69
	115.36	33.84	67.70	0.00	0.0601	10.38	456.8	391.37	0.0738	627.1	11.288	23.64	13.96	1.69
	116.36	33.79	67.67	0.00	0.0600	10.37	456.5	391.23	0.0743	633.4	11.401	23.88	14.11	1.69
	117.38	33.82	67.70	0.00	0.0601	10.37	456.4	391.07	0.0740	632.0	11.376	23.82	14.08	1.69
	118.37	33.77	67.65	-0.00	0.0601	10.39	457.4	392.09	0.0747	638.1	11.486	24.07	14.23	1.69
	119.36	33.81	67.68	0.00	0.0600	10.37	456.3	391.08	0.0744	632.9	11.391	23.87	14.10	1.69
	120.39	33.83	67.68	-0.00	0.0601	10.39	457.1	391.75	0.0758	651.1	11.720	24.55	14.54	1.69
	121.37	33.88	67.68	0.00	0.0602	10.40	457.4	392.12	0.0756	650.5	11.709	24.53	14.53	1.69
	122.35	33.87	67.70	0.00	0.0601	10.39	457.2	391.76	0.0753	647.2	11.650	24.40	14.45	1.69
	123.37	33.92	67.70	0.00	0.0602	10.40	457.6	392.15	0.0749	642.6	11.566	24.23	14.34	1.69
