Jul 25 2015 at 9:03:10
Frequency: 1Hz.
CO2
Zero:  Value:0.954578  Date:18 Mar 2005	 at 07:22:33	
Span:  Value:0.999099  Date:18 Mar 2005	 at 07:25:09	
H2O
Zero:  Value:0.712542  Date:18 Mar 2005	 at 07:52:31	
Span:  Value:0.993508  Date:18 Mar 2005	 at 11:44:01	
	Relative Time	Temperature	Pressure	Aux Input	CO2 Absorptance	CO2 mmol/m3	CO2 mg/m3	CO2 umol/mol	H2O Absorptance	H2O mmol/m3	H2O g/m3	H2O mmol/mol	H2O(°C)	Cooler Voltage
	0.76	10.39	67.83	-0.00	0.0615	10.70	470.9	371.93	0.0585	445.2	8.014	15.47	7.62	1.42
	1.76	10.37	67.81	0.00	0.0615	10.70	470.8	371.93	0.0586	446.0	8.027	15.50	7.65	1.42
	2.76	10.36	67.81	0.00	0.0615	10.68	470.0	371.31	0.0585	446.0	8.028	15.50	7.65	1.42
	3.76	10.39	67.83	0.00	0.0615	10.69	470.3	371.47	0.0585	446.2	8.031	15.51	7.65	1.42
	4.76	10.37	67.81	0.00	0.0615	10.69	470.2	371.46	0.0586	447.4	8.052	15.55	7.69	1.42
	5.76	10.42	67.84	0.00	0.0616	10.69	470.4	371.51	0.0586	447.2	8.050	15.54	7.69	1.42
	6.75	10.40	67.81	0.00	0.0614	10.67	469.7	371.11	0.0588	449.7	8.094	15.63	7.77	1.42
	7.77	10.38	67.84	-0.00	0.0614	10.66	469.2	370.57	0.0585	446.7	8.041	15.52	7.67	1.42
	8.77	10.40	67.83	0.00	0.0613	10.66	469.2	370.63	0.0586	447.7	8.059	15.56	7.71	1.42
	9.77	10.42	67.83	0.00	0.0612	10.64	468.3	369.86	0.0593	451.2	8.122	15.68	7.82	1.42
	10.78	10.41	67.81	0.00	0.0614	10.64	468.3	370.01	0.0590	453.1	8.155	15.75	7.88	1.42
	11.76	10.40	67.84	0.00	0.0612	10.65	468.6	370.14	0.0589	451.2	8.122	15.68	7.82	1.42
	12.78	10.40	67.84	-0.00	0.0612	10.63	467.7	369.36	0.0592	454.1	8.173	15.78	7.91	1.42
	13.76	10.41	67.81	-0.00	0.0611	10.62	467.4	369.32	0.0598	456.4	8.215	15.87	7.99	1.42
	14.77	10.40	67.84	-0.00	0.0612	10.59	466.1	368.10	0.0598	461.4	8.306	16.04	8.15	1.42
	15.76	10.40	67.83	-0.00	0.0612	10.64	468.0	369.62	0.0595	457.5	8.236	15.90	8.02	1.42
	16.77	10.40	67.83	0.00	0.0613	10.65	468.5	370.03	0.0592	454.9	8.189	15.81	7.94	1.42
	17.75	10.40	67.84	-0.00	0.0611	10.64	467.9	369.58	0.0594	455.4	8.198	15.83	7.96	1.42
	18.77	10.42	67.83	-0.00	0.0612	10.62	467.3	369.09	0.0595	455.2	8.194	15.82	7.95	1.42
	19.75	10.42	67.81	0.00	0.0612	10.63	467.6	369.46	0.0596	458.0	8.245	15.93	8.04	1.42
	20.76	10.42	67.81	0.00	0.0611	10.64	468.3	370.03	0.0602	458.2	8.248	15.93	8.05	1.42
	21.75	10.43	67.81	0.00	0.0613	10.65	468.4	370.16	0.0592	458.2	8.247	15.93	8.05	1.42
	22.76	10.42	67.84	-0.00	0.0612	10.64	468.3	369.89	0.0593	452.5	8.146	15.73	7.86	1.42
	23.77	10.42	67.86	0.00	0.0614	10.65	468.7	370.10	0.0589	451.2	8.122	15.68	7.82	1.42
	24.76	10.42	67.81	0.00	0.0613	10.64	468.1	369.89	0.0593	455.4	8.198	15.83	7.96	1.42
	25.76	10.42	67.81	0.00	0.0612	10.63	467.9	369.71	0.0593	453.8	8.169	15.78	7.91	1.42
	26.75	10.40	67.79	-0.00	0.0614	10.65	468.6	370.39	0.0591	451.2	8.121	15.69	7.82	1.42
	27.77	10.42	67.83	-0.00	0.0610	10.59	465.8	367.93	0.0602	463.0	8.334	16.09	8.20	1.42
	28.75	10.44	67.86	0.00	0.0610	10.58	465.5	367.55	0.0602	464.5	8.361	16.14	8.25	1.42
	29.77	10.43	67.83	-0.00	0.0605	10.48	461.2	364.29	0.0614	477.3	8.591	16.59	8.65	1.42
	30.76	10.43	67.83	-0.00	0.0607	10.52	462.8	365.57	0.0611	475.0	8.550	16.51	8.58	1.42
	31.76	10.45	67.83	0.00	0.0608	10.54	463.9	366.46	0.0609	472.7	8.509	16.43	8.51	1.42
	32.76	10.45	67.81	-0.00	0.0608	10.54	463.6	366.38	0.0611	474.7	8.544	16.51	8.57	1.42
	33.76	10.47	67.81	-0.00	0.0609	10.57	465.0	367.48	0.0600	461.1	8.300	16.03	8.14	1.42
	34.76	10.47	67.81	0.00	0.0602	10.43	458.8	362.58	0.0620	481.0	8.659	16.73	8.77	1.42
	35.77	10.47	67.83	-0.00	0.0610	10.56	464.6	367.08	0.0594	461.9	8.315	16.06	8.17	1.42
	36.77	10.47	67.84	0.00	0.0608	10.56	464.8	367.20	0.0604	460.5	8.289	16.01	8.12	1.42
	37.77	10.47	67.83	-0.00	0.0609	10.51	462.5	365.38	0.0603	471.8	8.493	16.40	8.48	1.42
	38.77	10.45	67.81	0.00	0.0612	10.64	468.1	369.90	0.0588	446.2	8.031	15.51	7.66	1.42
	39.78	10.47	67.84	0.00	0.0611	10.60	466.6	368.59	0.0590	451.3	8.123	15.69	7.82	1.42
	40.83	10.47	67.83	0.00	0.0610	10.59	466.2	368.27	0.0592	451.7	8.130	15.70	7.84	1.42
	41.76	10.47	67.81	-0.00	0.0609	10.56	464.6	367.21	0.0601	463.3	8.339	16.11	8.21	1.42
	42.76	10.50	67.83	-0.00	0.0608	10.55	464.1	366.69	0.0604	464.3	8.358	16.14	8.25	1.42
	43.76	10.50	67.83	-0.00	0.0607	10.51	462.6	365.47	0.0611	473.8	8.528	16.47	8.54	1.42
	44.76	10.50	67.81	-0.00	0.0607	10.52	463.1	366.00	0.0611	474.5	8.542	16.50	8.57	1.42
	45.76	10.50	67.83	0.00	0.0607	10.51	462.6	365.51	0.0608	472.4	8.504	16.42	8.50	1.42
	46.85	10.50	67.84	0.00	0.0610	10.57	465.2	367.50	0.0596	462.3	8.322	16.07	8.18	1.42
	47.83	10.51	67.81	0.00	0.0611	10.59	465.8	368.21	0.0593	454.9	8.188	15.82	7.94	1.42
	48.75	10.53	67.86	0.00	0.0610	10.59	465.9	368.05	0.0591	456.7	8.220	15.87	8.00	1.42
	49.76	10.51	67.83	-0.00	0.0610	10.60	466.3	368.48	0.0591	451.1	8.119	15.68	7.82	1.42
	50.75	10.51	67.84	0.00	0.0611	10.60	466.3	368.45	0.0593	455.0	8.190	15.82	7.95	1.42
	51.76	10.52	67.84	-0.00	0.0612	10.63	467.6	369.46	0.0587	449.1	8.083	15.61	7.76	1.42
	52.76	10.53	67.81	0.00	0.0611	10.61	467.1	369.18	0.0594	451.5	8.127	15.70	7.84	1.42
	53.76	10.50	67.81	0.00	0.0609	10.58	465.5	367.88	0.0598	459.8	8.276	15.99	8.10	1.42
	54.77	10.53	67.84	0.00	0.0609	10.55	464.4	366.93	0.0601	462.6	8.326	16.08	8.19	1.42
	55.76	10.55	67.84	0.00	0.0607	10.49	461.8	364.88	0.0603	466.1	8.391	16.21	8.31	1.42
	56.75	10.55	67.83	0.00	0.0606	10.51	462.4	365.38	0.0607	467.7	8.418	16.26	8.35	1.42
	57.75	10.55	67.81	0.00	0.0606	10.51	462.3	365.45	0.0614	480.5	8.649	16.71	8.75	1.42
	58.78	10.53	67.81	-0.00	0.0608	10.54	463.6	366.46	0.0610	475.2	8.554	16.53	8.59	1.42
	59.80	10.55	67.84	0.00	0.0608	10.53	463.4	366.22	0.0608	473.3	8.520	16.46	8.53	1.42
	60.79	10.55	67.84	-0.00	0.0607	10.52	463.0	365.84	0.0611	475.5	8.559	16.53	8.60	1.42
	61.78	10.55	67.81	0.00	0.0607	10.52	462.7	365.75	0.0611	473.5	8.522	16.47	8.54	1.42
	62.77	10.55	67.81	-0.00	0.0607	10.51	462.4	365.58	0.0611	476.2	8.572	16.57	8.62	1.42
	63.77	10.56	67.81	-0.00	0.0607	10.54	463.6	366.49	0.0609	473.1	8.515	16.46	8.52	1.42
	64.76	10.55	67.84	0.00	0.0609	10.55	464.3	366.90	0.0602	465.9	8.387	16.20	8.30	1.42
	65.75	10.56	67.84	0.00	0.0611	10.60	466.2	368.40	0.0598	461.0	8.297	16.03	8.14	1.42
	66.75	10.56	67.83	0.00	0.0610	10.56	464.8	367.30	0.0600	461.1	8.300	16.03	8.15	1.42
	67.77	10.56	67.84	-0.00	0.0607	10.52	462.7	365.68	0.0606	466.5	8.396	16.22	8.32	1.42
	68.77	10.58	67.81	0.00	0.0607	10.51	462.6	365.73	0.0606	470.4	8.468	16.37	8.44	1.42
	69.76	10.58	67.81	0.00	0.0605	10.46	460.3	363.89	0.0615	479.5	8.632	16.68	8.73	1.42
	70.78	10.58	67.81	0.00	0.0604	10.44	459.2	363.06	0.0619	482.0	8.677	16.77	8.80	1.42
	71.76	10.59	67.81	0.00	0.0603	10.42	458.5	362.56	0.0626	490.3	8.825	17.06	9.05	1.42
	72.77	10.59	67.83	-0.00	0.0604	10.43	458.7	362.58	0.0619	482.9	8.691	16.79	8.83	1.42
	73.76	10.61	67.84	0.00	0.0604	10.44	459.5	363.19	0.0617	483.5	8.703	16.81	8.85	1.42
	74.77	10.61	67.81	0.00	0.0604	10.44	459.5	363.32	0.0613	478.2	8.608	16.64	8.69	1.42
	75.75	10.61	67.81	0.00	0.0604	10.44	459.3	363.20	0.0617	480.6	8.651	16.72	8.76	1.42
	76.77	10.63	67.84	0.00	0.0604	10.44	459.6	363.24	0.0621	485.3	8.735	16.88	8.90	1.42
	77.75	10.63	67.81	-0.00	0.0604	10.45	459.8	363.58	0.0622	486.4	8.755	16.92	8.94	1.42
	78.77	10.61	67.83	-0.00	0.0602	10.39	457.3	361.43	0.0620	484.4	8.719	16.85	8.88	1.42
	79.76	10.61	67.84	0.00	0.0603	10.42	458.3	362.27	0.0622	485.9	8.747	16.90	8.92	1.42
	80.76	10.63	67.81	0.00	0.0604	10.46	460.3	364.02	0.0615	480.2	8.643	16.71	8.75	1.42
	81.76	10.64	67.81	0.00	0.0605	10.50	462.1	365.41	0.0608	467.5	8.414	16.26	8.35	1.42
	82.76	10.65	67.83	-0.00	0.0604	10.40	457.5	361.65	0.0609	471.9	8.494	16.41	8.49	1.42
	83.76	10.65	67.81	0.00	0.0603	10.43	459.1	363.05	0.0611	472.0	8.496	16.42	8.50	1.42
	84.75	10.64	67.83	-0.00	0.0603	10.42	458.4	362.35	0.0615	479.2	8.626	16.67	8.72	1.42
	85.77	10.65	67.79	-0.00	0.0602	10.38	456.8	361.33	0.0618	481.2	8.662	16.75	8.78	1.42
	86.75	10.64	67.81	0.00	0.0600	10.39	457.2	361.57	0.0615	480.3	8.645	16.71	8.75	1.42
	87.77	10.66	67.83	0.00	0.0601	10.40	457.8	361.94	0.0621	484.9	8.728	16.87	8.89	1.42
	88.75	10.66	67.84	0.00	0.0603	10.40	457.5	361.63	0.0620	485.0	8.729	16.87	8.90	1.42
	89.76	10.66	67.81	0.00	0.0603	10.41	458.1	362.32	0.0618	482.8	8.691	16.80	8.83	1.42
	90.75	10.66	67.83	0.00	0.0603	10.42	458.6	362.60	0.0617	480.9	8.656	16.73	8.77	1.42
	91.76	10.68	67.84	-0.00	0.0602	10.42	458.4	362.41	0.0618	482.3	8.682	16.78	8.82	1.42
	92.77	10.68	67.82	-0.00	0.0602	10.40	457.4	361.71	0.0620	485.3	8.735	16.89	8.91	1.42
	93.76	10.68	67.84	0.00	0.0601	10.39	456.9	361.25	0.0623	487.4	8.773	16.95	8.97	1.42
	94.83	10.68	67.86	0.00	0.0599	10.37	456.3	360.61	0.0627	486.4	8.755	16.91	8.94	1.42
	95.75	10.68	67.83	0.00	0.0602	10.38	456.8	361.13	0.0623	487.4	8.772	16.95	8.97	1.42
	96.77	10.69	67.84	0.00	0.0600	10.35	455.2	359.89	0.0624	492.4	8.863	17.13	9.12	1.42
	97.77	10.69	67.81	0.00	0.0600	10.34	455.2	360.00	0.0627	491.5	8.847	17.10	9.10	1.42
	98.76	10.69	67.81	0.00	0.0601	10.38	456.6	361.14	0.0623	488.9	8.800	17.01	9.02	1.42
	99.76	10.69	67.83	0.00	0.0604	10.44	459.4	363.20	0.0617	481.7	8.670	16.76	8.80	1.42
	100.76	10.71	67.78	-0.00	0.0604	10.44	459.6	363.64	0.0615	479.5	8.631	16.69	8.73	1.42
	101.76	10.71	67.84	0.00	0.0604	10.45	459.9	363.59	0.0616	479.3	8.627	16.67	8.72	1.42
	102.76	10.73	67.83	0.00	0.0604	10.44	459.3	363.21	0.0617	481.9	8.673	16.76	8.80	1.42
	103.77	10.71	67.78	-0.00	0.0604	10.45	459.8	363.83	0.0617	480.7	8.653	16.74	8.77	1.42
	104.75	10.71	67.81	0.00	0.0603	10.43	459.1	363.11	0.0619	483.3	8.699	16.82	8.85	1.42
	105.85	10.73	67.83	-0.00	0.0604	10.45	459.6	363.44	0.0621	485.4	8.737	16.89	8.91	1.42
	106.83	10.73	67.81	-0.00	0.0603	10.44	459.2	363.28	0.0618	482.9	8.692	16.81	8.84	1.42
	107.77	10.72	67.79	-0.00	0.0603	10.42	458.5	362.83	0.0622	486.9	8.765	16.95	8.96	1.42
	108.76	10.74	67.81	-0.00	0.0603	10.43	459.0	363.10	0.0624	488.7	8.797	17.01	9.02	1.42
	109.76	10.72	67.81	-0.00	0.0602	10.41	458.2	362.42	0.0627	491.7	8.850	17.11	9.10	1.43
	110.76	10.73	67.84	0.00	0.0600	10.37	456.4	360.85	0.0631	495.6	8.921	17.24	9.22	1.42
	111.76	10.74	67.81	-0.00	0.0599	10.32	454.0	359.14	0.0638	506.5	9.117	17.63	9.54	1.42
	112.76	10.74	67.81	-0.00	0.0599	10.36	455.7	360.53	0.0636	499.3	8.987	17.38	9.33	1.42
	113.77	10.77	67.78	-0.00	0.0600	10.38	456.7	361.45	0.0628	491.7	8.851	17.12	9.11	1.42
	114.77	10.76	67.83	-0.00	0.0600	10.38	456.9	361.34	0.0628	492.5	8.865	17.14	9.13	1.43
	115.75	10.76	67.81	0.00	0.0600	10.36	456.0	360.76	0.0632	497.9	8.962	17.33	9.29	1.43
	116.78	10.76	67.81	-0.00	0.0599	10.35	455.4	360.25	0.0631	497.0	8.946	17.30	9.27	1.43
	117.77	10.76	67.81	-0.00	0.0600	10.32	454.1	359.23	0.0629	498.1	8.966	17.34	9.30	1.42
	118.76	10.76	67.84	0.00	0.0598	10.37	456.2	360.74	0.0631	490.7	8.833	17.07	9.08	1.43
	119.76	10.77	67.83	0.00	0.0598	10.31	453.8	358.92	0.0638	503.3	9.060	17.51	9.45	1.43
	120.76	10.77	67.83	-0.00	0.0597	10.31	453.5	358.70	0.0637	501.8	9.032	17.46	9.41	1.43
	121.76	10.77	67.81	0.00	0.0597	10.30	453.1	358.46	0.0640	507.1	9.128	17.65	9.57	1.43
