Jul 25 2015 at 11:03:29
Frequency: 1.00Hz.
CO2
Zero:  Value:0.95  Date:18 Mar 2005	 at 07:22:33	
Span:  Value:1.00  Date:18 Mar 2005	 at 07:25:09	
H2O
Zero:  Value:0.71  Date:18 Mar 2005	 at 07:52:31	
Span:  Value:0.99  Date:18 Mar 2005	 at 11:44:01	
	Relative Time	Temperature	Pressure	Aux Input	CO2 Absorptance	CO2 mmol/m3	CO2 mg/m3	CO2 umol/mol	H2O Absorptance	H2O mmol/m3	H2O g/m3	H2O mmol/mol	H2O(°C)	Cooler Voltage
	0.42	23.48	67.81	0.00	0.0589	10.09	443.8	366.86	0.0744	635.1	11.432	23.10	13.63	1.64
	1.44	23.47	67.81	-0.00	0.0588	10.11	444.9	367.76	0.0756	632.7	11.388	23.01	13.57	1.63
	2.42	23.46	67.81	0.00	0.0581	9.94	437.5	361.61	0.0794	701.0	12.618	25.50	15.16	1.63
	3.40	23.45	67.81	0.00	0.0589	10.13	445.6	368.30	0.0743	632.8	11.391	23.01	13.57	1.63
	4.42	23.43	67.81	0.00	0.0592	10.16	446.9	369.33	0.0726	616.7	11.101	22.43	13.18	1.64
	5.49	23.49	67.85	0.00	0.0593	10.20	448.9	370.83	0.0711	594.8	10.707	21.62	12.63	1.64
	6.43	23.47	67.81	-0.00	0.0592	10.18	448.1	370.42	0.0718	603.2	10.857	21.94	12.84	1.64
	7.41	23.49	67.81	0.00	0.0596	10.26	451.6	373.33	0.0699	577.9	10.401	21.02	12.19	1.63
	8.42	23.47	67.83	0.00	0.0596	10.26	451.2	372.87	0.0694	575.7	10.363	20.93	12.13	1.64
	9.42	23.43	67.83	0.00	0.0597	10.30	453.2	374.45	0.0693	567.1	10.209	20.62	11.90	1.63
	10.42	23.45	67.81	0.00	0.0596	10.27	452.1	373.66	0.0698	572.8	10.311	20.83	12.05	1.64
	11.42	23.45	67.81	0.00	0.0596	10.26	451.4	373.12	0.0700	581.1	10.460	21.13	12.27	1.64
	12.43	23.45	67.81	-0.00	0.0593	10.23	450.0	371.94	0.0710	583.2	10.497	21.21	12.33	1.63
	13.43	23.45	67.81	-0.00	0.0591	10.16	446.9	369.32	0.0723	605.5	10.899	22.02	12.90	1.63
	14.43	23.46	67.81	0.00	0.0591	10.15	446.8	369.30	0.0713	599.6	10.793	21.81	12.75	1.63
	15.41	23.45	67.81	0.00	0.0592	10.18	448.0	370.25	0.0709	586.9	10.565	21.34	12.42	1.63
	16.43	23.45	67.81	0.00	0.0591	10.16	447.0	369.46	0.0716	596.8	10.742	21.70	12.68	1.64
	17.43	23.43	67.81	-0.00	0.0589	10.12	445.3	368.06	0.0725	609.7	10.975	22.17	13.00	1.64
	18.42	23.43	67.81	0.00	0.0590	10.13	445.9	368.50	0.0728	617.7	11.119	22.46	13.20	1.63
	19.41	23.43	67.81	0.00	0.0589	10.14	446.0	368.61	0.0733	614.3	11.058	22.34	13.12	1.64
	20.42	23.43	67.81	0.00	0.0589	10.11	444.9	367.72	0.0732	618.7	11.137	22.50	13.23	1.64
	21.50	23.43	67.81	0.00	0.0588	10.06	442.7	365.89	0.0736	629.5	11.331	22.89	13.49	1.64
	22.42	23.45	67.81	0.00	0.0589	10.13	445.6	368.34	0.0726	612.8	11.030	22.29	13.08	1.64
	23.42	23.47	67.81	0.00	0.0588	10.10	444.6	367.49	0.0733	619.3	11.147	22.52	13.24	1.64
	24.43	23.46	67.81	-0.00	0.0587	10.08	443.4	366.45	0.0736	623.2	11.217	22.66	13.34	1.64
	25.43	23.47	67.81	-0.00	0.0587	10.07	443.2	366.30	0.0737	625.1	11.252	22.73	13.39	1.64
	26.43	23.46	67.81	-0.00	0.0587	10.07	443.0	366.17	0.0735	623.9	11.231	22.69	13.36	1.64
	27.41	23.47	67.81	0.00	0.0588	10.09	444.1	367.11	0.0736	625.9	11.266	22.76	13.41	1.64
	28.41	23.48	67.81	0.00	0.0589	10.11	444.8	367.68	0.0728	613.6	11.046	22.32	13.10	1.64
	29.42	23.49	67.83	-0.00	0.0589	10.11	444.7	367.47	0.0739	624.6	11.243	22.71	13.38	1.64
	30.42	23.49	67.83	-0.00	0.0589	10.10	444.5	367.33	0.0728	616.0	11.088	22.40	13.16	1.64
	31.42	23.49	67.83	-0.00	0.0589	10.12	445.1	367.80	0.0727	612.9	11.031	22.28	13.08	1.64
	32.43	23.50	67.81	0.00	0.0589	10.12	445.3	368.08	0.0731	616.8	11.102	22.43	13.18	1.64
	33.41	23.50	67.81	0.00	0.0589	10.11	444.9	367.78	0.0731	618.4	11.132	22.49	13.22	1.64
	34.43	23.50	67.81	0.00	0.0589	10.11	444.7	367.64	0.0732	618.7	11.137	22.51	13.23	1.64
	35.49	23.52	67.81	0.00	0.0588	10.10	444.4	367.37	0.0733	619.4	11.150	22.53	13.25	1.64
	36.43	23.48	67.81	0.00	0.0588	10.10	444.3	367.28	0.0733	620.8	11.174	22.58	13.28	1.64
	37.42	23.52	67.81	0.00	0.0588	10.09	444.1	367.19	0.0733	621.0	11.178	22.59	13.29	1.64
	38.42	23.50	67.81	0.00	0.0587	10.08	443.3	366.48	0.0735	621.7	11.191	22.61	13.30	1.64
	39.42	23.48	67.81	0.00	0.0586	10.06	442.7	365.95	0.0736	622.5	11.204	22.64	13.32	1.64
	40.40	23.50	67.81	0.00	0.0588	10.09	443.8	366.81	0.0736	623.9	11.230	22.69	13.36	1.64
	41.42	23.50	67.81	0.00	0.0588	10.10	444.3	367.27	0.0730	616.9	11.105	22.44	13.19	1.64
	42.42	23.50	67.83	-0.00	0.0588	10.09	443.9	366.81	0.0733	619.6	11.153	22.53	13.25	1.64
	43.43	23.47	67.81	0.00	0.0588	10.09	444.2	367.15	0.0734	620.5	11.168	22.57	13.27	1.64
	44.43	23.49	67.83	-0.00	0.0588	10.09	444.0	366.89	0.0734	621.0	11.178	22.58	13.29	1.64
	45.43	23.50	67.81	0.00	0.0588	10.10	444.4	367.34	0.0734	621.5	11.187	22.61	13.30	1.64
	46.43	23.50	67.83	0.00	0.0589	10.10	444.4	367.25	0.0734	621.4	11.186	22.60	13.30	1.64
	47.44	23.50	67.81	-0.00	0.0588	10.09	444.1	367.15	0.0733	619.2	11.146	22.52	13.24	1.64
	48.50	23.54	67.81	-0.00	0.0589	10.11	444.6	367.62	0.0738	631.8	11.372	22.98	13.55	1.64
	49.41	23.52	67.81	0.00	0.0588	10.08	443.7	366.84	0.0735	627.5	11.294	22.82	13.45	1.64
	50.42	23.53	67.81	0.00	0.0588	10.08	443.4	366.62	0.0738	626.5	11.277	22.79	13.42	1.64
	51.42	23.56	67.83	0.00	0.0589	10.11	444.9	367.68	0.0738	621.9	11.194	22.62	13.31	1.64
	52.42	23.52	67.81	-0.00	0.0588	10.10	444.2	367.25	0.0737	626.2	11.272	22.78	13.42	1.64
	53.41	23.52	67.81	0.00	0.0588	10.09	444.0	367.05	0.0730	616.8	11.103	22.44	13.19	1.64
	54.43	23.52	67.81	-0.00	0.0588	10.09	444.1	367.13	0.0734	618.5	11.132	22.50	13.23	1.64
	55.44	23.52	67.81	0.00	0.0588	10.09	444.1	367.15	0.0732	618.3	11.129	22.49	13.22	1.64
	56.42	23.52	67.84	0.00	0.0587	10.06	442.8	365.88	0.0734	622.6	11.206	22.64	13.33	1.64
	57.44	23.50	67.78	-0.00	0.0587	10.07	442.9	366.28	0.0741	630.8	11.354	22.95	13.53	1.64
	58.44	23.50	67.79	-0.00	0.0587	10.06	442.6	365.99	0.0749	639.8	11.516	23.28	13.75	1.64
	59.41	23.54	67.81	0.00	0.0587	10.07	443.3	366.46	0.0745	635.4	11.437	23.11	13.64	1.64
	60.42	23.54	67.78	0.00	0.0585	10.03	441.3	365.00	0.0760	651.7	11.730	23.71	14.03	1.64
	61.42	23.54	67.83	0.00	0.0583	10.00	439.9	363.52	0.0757	648.8	11.679	23.59	13.96	1.64
	62.43	23.54	67.83	-0.00	0.0585	10.02	440.9	364.43	0.0756	650.3	11.706	23.65	14.00	1.64
	63.41	23.55	67.81	0.00	0.0584	10.00	440.0	363.83	0.0758	652.9	11.751	23.75	14.06	1.64
	64.41	23.55	67.81	0.00	0.0584	10.02	440.7	364.40	0.0755	649.0	11.682	23.61	13.97	1.64
	65.49	23.56	67.81	-0.00	0.0585	10.01	440.6	364.29	0.0758	654.2	11.776	23.80	14.09	1.64
	66.42	23.54	67.81	-0.00	0.0584	10.01	440.5	364.15	0.0762	655.9	11.806	23.86	14.13	1.64
	67.44	23.53	67.83	-0.00	0.0585	10.02	440.8	364.31	0.0759	654.2	11.776	23.79	14.09	1.64
	68.42	23.54	67.81	0.00	0.0585	10.01	440.6	364.31	0.0757	650.6	11.710	23.67	14.00	1.64
	69.44	23.56	67.81	-0.00	0.0584	10.02	441.1	364.66	0.0759	651.4	11.725	23.70	14.03	1.64
	70.43	23.53	67.81	-0.00	0.0584	10.00	440.1	363.83	0.0761	655.8	11.804	23.86	14.13	1.64
	71.42	23.53	67.81	0.00	0.0583	10.00	440.2	363.90	0.0762	657.2	11.830	23.91	14.16	1.64
	72.43	23.53	67.81	0.00	0.0583	10.00	439.8	363.65	0.0768	663.8	11.949	24.15	14.32	1.64
	73.41	23.56	67.81	0.00	0.0583	9.98	439.3	363.21	0.0769	666.6	11.999	24.25	14.38	1.64
	74.43	23.54	67.81	0.00	0.0582	9.97	438.7	362.75	0.0767	664.4	11.959	24.17	14.33	1.64
	75.43	23.54	67.83	-0.00	0.0583	9.98	439.1	362.88	0.0771	667.0	12.006	24.26	14.39	1.64
	76.41	23.54	67.81	0.00	0.0582	9.96	438.3	362.37	0.0776	674.9	12.148	24.55	14.57	1.64
	77.41	23.56	67.78	0.00	0.0582	9.97	438.6	362.73	0.0779	680.0	12.239	24.75	14.69	1.64
	78.42	23.55	67.81	-0.00	0.0582	9.96	438.1	362.27	0.0775	674.5	12.141	24.54	14.56	1.64
	79.48	23.53	67.81	0.00	0.0581	9.95	437.8	361.97	0.0775	672.7	12.109	24.47	14.52	1.64
	80.43	23.54	67.81	-0.00	0.0582	9.97	438.5	362.58	0.0773	672.5	12.105	24.46	14.52	1.65
	81.51	23.54	67.78	-0.00	0.0583	9.98	439.0	363.06	0.0771	669.7	12.054	24.37	14.45	1.64
	82.42	23.53	67.81	0.00	0.0582	9.97	438.7	362.65	0.0771	668.6	12.036	24.32	14.43	1.64
	83.43	23.52	67.81	-0.00	0.0582	9.95	437.9	362.00	0.0771	668.9	12.040	24.33	14.43	1.64
	84.43	23.54	67.81	0.00	0.0582	9.95	437.8	362.00	0.0771	669.5	12.051	24.35	14.45	1.64
	85.41	23.52	67.81	0.00	0.0582	9.97	438.7	362.64	0.0771	668.7	12.036	24.32	14.43	1.64
	86.41	23.52	67.78	0.00	0.0583	9.98	439.1	363.16	0.0771	670.0	12.060	24.38	14.46	1.65
	87.42	23.56	67.81	0.00	0.0582	9.97	438.7	362.71	0.0771	668.3	12.029	24.31	14.42	1.64
	88.42	23.54	67.81	0.00	0.0581	9.95	437.8	361.94	0.0775	672.2	12.099	24.45	14.51	1.64
	89.42	23.52	67.78	0.00	0.0583	9.97	438.6	362.71	0.0774	672.9	12.113	24.49	14.53	1.64
	90.42	23.52	67.81	-0.00	0.0582	9.97	438.5	362.51	0.0774	672.2	12.099	24.45	14.51	1.64
	91.43	23.54	67.81	-0.00	0.0582	9.96	438.4	362.41	0.0773	670.8	12.074	24.40	14.48	1.64
	92.42	23.56	67.81	0.00	0.0582	9.97	438.6	362.66	0.0772	670.5	12.069	24.39	14.47	1.65
	93.40	23.58	67.85	0.00	0.0581	9.94	437.6	361.56	0.0777	678.2	12.207	24.66	14.65	1.65
	94.41	23.52	67.81	0.00	0.0581	9.94	437.2	361.48	0.0779	678.8	12.218	24.69	14.66	1.64
	95.49	23.54	67.81	0.00	0.0581	9.94	437.4	361.64	0.0778	678.8	12.219	24.69	14.66	1.64
	96.42	23.53	67.81	0.00	0.0582	9.95	437.8	361.95	0.0777	675.8	12.164	24.58	14.59	1.64
	97.42	23.52	67.81	-0.00	0.0581	9.94	437.6	361.74	0.0779	678.0	12.204	24.66	14.64	1.65
	98.50	23.54	67.81	0.00	0.0581	9.93	437.1	361.42	0.0780	680.6	12.251	24.76	14.70	1.65
	99.42	23.57	67.81	0.00	0.0580	9.92	436.5	360.88	0.0781	684.0	12.312	24.88	14.78	1.65
	100.48	23.56	67.81	0.00	0.0581	9.93	436.9	361.25	0.0780	681.9	12.274	24.81	14.73	1.64
	101.43	23.57	67.81	-0.00	0.0581	9.94	437.1	361.47	0.0780	680.9	12.256	24.77	14.71	1.64
	102.43	23.59	67.83	-0.00	0.0580	9.91	436.2	360.54	0.0787	687.9	12.382	25.02	14.87	1.64
	103.43	23.61	67.81	0.00	0.0581	9.93	437.1	361.42	0.0782	683.4	12.301	24.87	14.77	1.65
	104.43	23.60	67.81	0.00	0.0580	9.91	436.2	360.69	0.0789	690.6	12.431	25.13	14.93	1.65
	105.42	23.59	67.81	0.00	0.0580	9.92	436.5	360.94	0.0787	690.4	12.427	25.12	14.93	1.64
	106.42	23.60	67.81	-0.00	0.0580	9.92	436.4	360.90	0.0789	692.8	12.470	25.21	14.98	1.65
	107.42	23.61	67.81	-0.00	0.0579	9.90	435.7	360.33	0.0790	693.6	12.484	25.24	15.00	1.65
	108.44	23.60	67.81	-0.00	0.0580	9.91	436.2	360.68	0.0791	694.8	12.507	25.28	15.03	1.64
	109.40	23.65	67.81	0.00	0.0579	9.90	435.8	360.41	0.0789	692.3	12.461	25.19	14.97	1.65
	110.42	23.60	67.78	0.00	0.0580	9.91	436.2	360.87	0.0790	695.4	12.518	25.31	15.04	1.65
	111.42	23.61	67.81	-0.00	0.0579	9.90	435.8	360.37	0.0787	690.0	12.419	25.11	14.92	1.65
	112.43	23.63	67.81	-0.00	0.0580	9.92	436.4	360.95	0.0785	687.9	12.381	25.03	14.87	1.65
	113.41	23.60	67.81	-0.00	0.0580	9.91	436.1	360.66	0.0783	684.8	12.326	24.92	14.80	1.65
	114.41	23.60	67.81	0.00	0.0580	9.91	436.0	360.58	0.0786	690.3	12.425	25.12	14.92	1.65
	115.41	23.60	67.81	0.00	0.0579	9.90	435.7	360.31	0.0788	691.4	12.446	25.16	14.95	1.65
	116.42	23.61	67.81	-0.00	0.0580	9.91	436.1	360.62	0.0790	691.8	12.453	25.17	14.96	1.65
	117.42	23.63	67.81	-0.00	0.0580	9.92	436.4	360.89	0.0787	690.5	12.430	25.13	14.93	1.65
	118.44	23.66	67.86	0.00	0.0580	9.92	436.5	360.75	0.0786	689.1	12.404	25.06	14.90	1.65
	119.43	23.68	67.83	-0.00	0.0581	9.93	437.0	361.29	0.0788	690.9	12.435	25.13	14.94	1.65
	120.50	23.69	67.83	0.00	0.0581	9.94	437.1	361.49	0.0789	693.1	12.476	25.22	14.99	1.65
	121.42	23.70	67.81	0.00	0.0581	9.94	437.2	361.68	0.0790	693.3	12.479	25.23	15.00	1.65
	122.41	23.68	67.81	0.00	0.0581	9.94	437.5	361.85	0.0790	694.8	12.506	25.29	15.03	1.65
	123.43	23.68	67.81	-0.00	0.0581	9.93	437.0	361.46	0.0792	695.7	12.523	25.32	15.05	1.65
	124.43	23.70	67.80	0.00	0.0581	9.93	437.0	361.51	0.0793	697.0	12.546	25.37	15.08	1.65
	125.42	23.68	67.81	-0.00	0.0580	9.92	436.7	361.22	0.0793	697.6	12.557	25.39	15.09	1.65
	126.42	23.66	67.81	-0.00	0.0580	9.92	436.4	360.91	0.0794	698.9	12.581	25.44	15.12	1.65
	127.42	23.66	67.81	-0.00	0.0580	9.91	436.2	360.76	0.0793	697.6	12.557	25.39	15.09	1.65
	128.42	23.66	67.81	0.00	0.0580	9.91	435.9	360.56	0.0794	698.6	12.575	25.42	15.11	1.65
	129.42	23.64	67.78	0.00	0.0581	9.93	437.0	361.60	0.0792	698.9	12.580	25.44	15.12	1.65
	130.42	23.64	67.81	0.00	0.0581	9.93	437.1	361.49	0.0790	695.6	12.521	25.31	15.05	1.65
	131.41	23.64	67.81	-0.00	0.0581	9.94	437.3	361.63	0.0789	692.8	12.470	25.21	14.98	1.65
	132.43	23.64	67.81	-0.00	0.0581	9.93	436.7	361.22	0.0788	691.8	12.453	25.18	14.96	1.65
	133.41	23.64	67.83	0.00	0.0581	9.94	437.2	361.40	0.0789	693.5	12.483	25.23	15.00	1.65
