Jul 25 2015 at 16:47:30
Frequency: 1.00Hz.
CO2
Zero:  Value:0.95  Date:18 Mar 2005	 at 07:22:33	
Span:  Value:1.00  Date:18 Mar 2005	 at 07:25:09	
H2O
Zero:  Value:0.71  Date:18 Mar 2005	 at 07:52:31	
Span:  Value:0.99  Date:18 Mar 2005	 at 11:44:01	
	Relative Time	Temperature	Pressure	Aux Input	CO2 Absorptance	CO2 mmol/m3	CO2 mg/m3	CO2 umol/mol	H2O Absorptance	H2O mmol/m3	H2O g/m3	H2O mmol/mol	H2O(°C)	Cooler Voltage
	0.72	34.21	67.68	0.00	0.0617	10.75	473.0	405.94	0.0524	383.9	6.910	14.50	6.64	1.64
	1.73	34.21	67.70	0.00	0.0614	10.67	469.4	402.70	0.0543	409.5	7.371	15.46	7.58	1.64
	2.73	34.26	67.65	0.00	0.0613	10.69	470.6	404.06	0.0535	391.0	7.038	14.77	6.91	1.64
	3.71	34.26	67.65	0.00	0.0616	10.70	470.7	404.18	0.0535	396.2	7.131	14.97	7.10	1.64
	4.74	34.30	67.68	-0.00	0.0617	10.73	472.2	405.38	0.0535	392.6	7.066	14.83	6.97	1.64
	5.73	34.19	67.70	0.00	0.0616	10.70	470.9	403.93	0.0539	396.3	7.134	14.96	7.10	1.64
	6.71	34.14	67.68	0.00	0.0615	10.69	470.5	403.65	0.0534	393.1	7.076	14.84	6.98	1.64
	7.74	34.15	67.68	0.00	0.0615	10.71	471.0	404.13	0.0537	392.4	7.063	14.81	6.95	1.64
	8.81	34.15	67.68	-0.00	0.0614	10.67	469.5	402.83	0.0545	402.6	7.246	15.20	7.33	1.64
	9.73	34.12	67.68	-0.00	0.0614	10.68	469.7	402.96	0.0543	401.3	7.223	15.15	7.28	1.64
	10.73	34.12	67.67	0.00	0.0614	10.68	469.9	403.11	0.0539	399.4	7.189	15.08	7.21	1.64
	11.73	34.07	67.67	0.00	0.0614	10.69	470.2	403.36	0.0537	394.9	7.108	14.90	7.04	1.64
	12.73	34.07	67.69	0.00	0.0613	10.66	469.1	402.25	0.0537	393.9	7.090	14.86	7.01	1.64
	13.73	34.07	67.70	0.00	0.0614	10.67	469.3	402.41	0.0542	399.9	7.198	15.09	7.23	1.64
	14.73	34.06	67.67	0.00	0.0614	10.68	469.7	402.90	0.0543	402.8	7.251	15.20	7.33	1.64
	15.72	34.04	67.65	0.00	0.0612	10.64	468.1	401.62	0.0542	401.7	7.230	15.16	7.29	1.64
	16.74	34.02	67.67	0.00	0.0612	10.63	467.7	401.13	0.0546	404.5	7.281	15.26	7.39	1.64
	17.74	34.02	67.65	-0.00	0.0612	10.64	468.3	401.78	0.0548	407.6	7.337	15.39	7.50	1.64
	18.74	34.09	67.65	-0.00	0.0611	10.62	467.2	400.90	0.0548	406.9	7.325	15.37	7.48	1.64
	19.73	34.14	67.68	-0.00	0.0609	10.55	464.3	398.37	0.0550	406.1	7.310	15.33	7.46	1.64
	20.72	34.19	67.68	0.00	0.0611	10.60	466.5	400.31	0.0546	409.1	7.364	15.45	7.56	1.64
	21.73	34.18	67.70	-0.00	0.0610	10.57	465.0	398.88	0.0551	406.7	7.321	15.35	7.48	1.64
	22.75	34.11	67.67	0.00	0.0610	10.58	465.7	399.54	0.0556	416.3	7.494	15.72	7.82	1.64
	23.74	34.12	67.68	-0.00	0.0609	10.55	464.3	398.35	0.0566	424.3	7.638	16.02	8.10	1.64
	24.74	34.16	67.67	-0.00	0.0610	10.59	465.8	399.66	0.0572	433.4	7.801	16.36	8.41	1.64
	25.74	34.18	67.70	0.00	0.0608	10.55	464.2	398.23	0.0588	447.6	8.056	16.89	8.89	1.64
	26.74	34.20	67.70	0.00	0.0607	10.53	463.2	397.36	0.0591	454.2	8.176	17.14	9.11	1.64
	27.74	34.14	67.70	-0.00	0.0604	10.49	461.4	395.77	0.0599	456.1	8.210	17.21	9.17	1.64
	28.72	34.16	67.65	0.00	0.0606	10.46	460.3	395.12	0.0589	455.1	8.192	17.19	9.13	1.64
	29.73	34.11	67.67	0.00	0.0606	10.48	461.3	395.78	0.0595	457.2	8.230	17.26	9.20	1.64
	30.72	34.07	67.65	0.00	0.0606	10.49	461.5	396.05	0.0598	458.6	8.254	17.31	9.24	1.64
	31.71	34.04	67.70	0.00	0.0606	10.48	461.1	395.36	0.0607	475.9	8.567	17.95	9.79	1.64
	32.73	34.03	67.70	0.00	0.0604	10.47	460.5	394.80	0.0599	461.9	8.313	17.42	9.35	1.64
	33.73	34.03	67.68	-0.00	0.0605	10.47	460.8	395.19	0.0605	463.2	8.337	17.48	9.39	1.64
	34.73	34.03	67.70	-0.00	0.0605	10.48	460.9	395.20	0.0613	478.5	8.614	18.05	9.87	1.64
	35.74	34.01	67.70	-0.00	0.0605	10.48	461.1	395.31	0.0616	480.6	8.652	18.13	9.94	1.64
	36.72	34.06	67.70	0.00	0.0605	10.47	460.5	394.89	0.0620	483.6	8.705	18.25	10.03	1.64
	37.71	34.06	67.67	0.00	0.0605	10.47	460.7	395.20	0.0629	496.5	8.936	18.74	10.43	1.64
	38.75	34.06	67.68	-0.00	0.0603	10.44	459.2	393.87	0.0652	517.4	9.313	19.53	11.05	1.64
	39.73	34.06	67.68	0.00	0.0604	10.44	459.4	394.00	0.0642	510.5	9.190	19.27	10.84	1.64
	40.80	34.16	67.67	0.00	0.0604	10.45	459.8	394.53	0.0631	499.3	8.987	18.85	10.52	1.64
	41.73	34.16	67.65	0.00	0.0604	10.45	459.8	394.69	0.0638	505.6	9.101	19.09	10.70	1.64
	42.74	34.19	67.67	-0.00	0.0604	10.45	459.8	394.57	0.0630	498.1	8.965	18.81	10.48	1.64
	43.73	34.19	67.67	0.00	0.0603	10.44	459.2	394.03	0.0633	499.5	8.992	18.86	10.52	1.64
	44.74	34.18	67.68	-0.00	0.0602	10.43	459.1	393.91	0.0634	501.2	9.022	18.92	10.57	1.64
	45.79	34.11	67.67	-0.00	0.0603	10.42	458.5	393.37	0.0643	507.6	9.137	19.16	10.76	1.64
	46.80	34.16	67.70	-0.00	0.0603	10.42	458.4	393.18	0.0647	516.6	9.298	19.50	11.03	1.64
	47.72	34.18	67.68	0.00	0.0600	10.36	455.9	391.18	0.0672	543.5	9.782	20.52	11.79	1.64
	48.73	34.17	67.68	-0.00	0.0601	10.38	456.8	391.93	0.0656	529.3	9.527	19.98	11.39	1.64
	49.73	34.18	67.67	0.00	0.0600	10.38	456.7	391.92	0.0660	533.4	9.602	20.14	11.51	1.64
	50.73	34.17	67.70	0.00	0.0601	10.37	456.5	391.55	0.0657	526.9	9.484	19.89	11.32	1.64
	51.72	34.16	67.68	0.00	0.0601	10.37	456.3	391.54	0.0655	523.7	9.426	19.77	11.23	1.64
	52.71	34.10	67.70	0.00	0.0600	10.37	456.1	391.18	0.0663	535.2	9.634	20.20	11.56	1.64
	53.82	34.11	67.65	-0.00	0.0599	10.33	454.7	390.22	0.0675	547.4	9.854	20.67	11.90	1.64
	54.74	34.15	67.65	-0.00	0.0598	10.33	454.4	390.00	0.0683	555.3	9.995	20.97	12.12	1.64
	55.72	34.15	67.68	0.00	0.0599	10.34	454.9	390.27	0.0673	548.6	9.875	20.71	11.94	1.64
	56.75	34.22	67.67	0.00	0.0598	10.33	454.7	390.23	0.0680	554.7	9.985	20.95	12.11	1.64
	57.74	34.23	67.68	0.00	0.0598	10.33	454.6	390.16	0.0682	555.9	10.007	20.99	12.14	1.64
	58.73	34.30	67.68	-0.00	0.0599	10.34	455.0	390.55	0.0676	548.6	9.876	20.72	11.94	1.64
	59.73	34.33	67.65	0.00	0.0599	10.33	454.7	390.50	0.0675	549.2	9.886	20.75	11.96	1.64
	60.73	34.33	67.68	0.00	0.0597	10.32	454.1	389.81	0.0688	567.1	10.207	21.42	12.45	1.64
	61.73	34.31	67.63	-0.00	0.0597	10.28	452.4	388.66	0.0691	573.7	10.327	21.69	12.62	1.64
	62.73	34.31	67.65	-0.00	0.0596	10.28	452.4	388.51	0.0688	562.6	10.126	21.26	12.32	1.64
	63.73	34.31	67.70	0.00	0.0598	10.33	454.5	390.07	0.0686	561.0	10.098	21.18	12.28	1.64
	64.74	34.29	67.67	-0.00	0.0597	10.30	453.1	388.95	0.0681	554.8	9.986	20.95	12.11	1.64
	65.74	34.24	67.67	-0.00	0.0598	10.31	453.5	389.26	0.0681	556.1	10.010	21.00	12.15	1.64
	66.74	34.23	67.65	-0.00	0.0598	10.32	454.1	389.91	0.0685	561.4	10.105	21.21	12.29	1.64
	67.74	34.24	67.68	0.00	0.0596	10.29	452.9	388.67	0.0691	568.9	10.241	21.48	12.49	1.64
	68.72	34.19	67.68	0.00	0.0596	10.28	452.4	388.19	0.0698	576.8	10.382	21.78	12.70	1.64
	69.73	34.20	67.68	-0.00	0.0596	10.29	452.6	388.35	0.0697	574.9	10.349	21.71	12.65	1.64
	70.72	34.13	67.68	0.00	0.0596	10.26	451.5	387.38	0.0701	582.7	10.489	22.00	12.85	1.64
	71.79	34.11	67.68	0.00	0.0596	10.26	451.6	387.39	0.0705	589.3	10.607	22.24	13.02	1.64
	72.74	34.06	67.70	0.00	0.0595	10.26	451.4	387.06	0.0710	590.0	10.619	22.26	13.04	1.64
	73.73	34.08	67.70	0.00	0.0595	10.27	451.9	387.47	0.0701	580.0	10.441	21.88	12.78	1.64
	74.82	34.09	67.70	-0.00	0.0596	10.27	451.8	387.45	0.0701	574.9	10.347	21.69	12.64	1.64
	75.72	34.04	67.68	0.00	0.0596	10.27	452.0	387.69	0.0703	583.5	10.504	22.02	12.87	1.64
	76.72	34.02	67.70	0.00	0.0595	10.26	451.3	386.91	0.0705	585.3	10.535	22.08	12.91	1.64
	77.72	34.09	67.70	0.00	0.0595	10.27	451.9	387.52	0.0706	585.0	10.530	22.07	12.91	1.64
	78.73	34.06	67.72	-0.00	0.0595	10.25	451.0	386.56	0.0705	587.8	10.580	22.17	12.98	1.64
	79.72	34.09	67.67	0.00	0.0595	10.25	451.2	387.07	0.0706	586.8	10.563	22.15	12.96	1.64
	80.73	34.12	67.67	0.00	0.0595	10.26	451.5	387.38	0.0703	586.0	10.549	22.12	12.94	1.64
	81.73	34.09	67.68	-0.00	0.0595	10.26	451.3	387.11	0.0695	572.7	10.308	21.61	12.58	1.64
	82.71	34.06	67.65	0.00	0.0595	10.26	451.7	387.56	0.0698	576.2	10.371	21.75	12.68	1.64
	83.74	34.01	67.68	-0.00	0.0596	10.26	451.5	387.23	0.0694	572.5	10.304	21.60	12.58	1.64
	84.74	34.00	67.65	0.00	0.0595	10.26	451.3	387.13	0.0698	577.0	10.386	21.78	12.70	1.64
	85.72	34.01	67.67	-0.00	0.0595	10.23	450.3	386.23	0.0689	565.6	10.180	21.34	12.39	1.64
	86.74	34.05	67.68	-0.00	0.0596	10.28	452.3	387.93	0.0691	570.1	10.263	21.52	12.52	1.64
	87.72	34.05	67.70	0.00	0.0596	10.27	451.9	387.44	0.0701	577.8	10.401	21.80	12.72	1.64
	88.73	34.09	67.67	-0.00	0.0595	10.26	451.5	387.30	0.0703	584.2	10.515	22.05	12.89	1.64
	89.73	34.06	67.67	0.00	0.0595	10.25	450.9	386.80	0.0704	584.0	10.512	22.04	12.88	1.64
	90.73	34.05	67.67	0.00	0.0594	10.24	450.4	386.36	0.0706	589.5	10.611	22.25	13.02	1.64
	91.73	34.02	67.68	0.00	0.0594	10.23	450.3	386.16	0.0706	588.5	10.592	22.21	13.00	1.64
	92.73	34.02	67.67	0.00	0.0593	10.23	450.0	385.97	0.0723	600.9	10.816	22.68	13.32	1.64
	93.73	34.08	67.65	0.00	0.0594	10.21	449.4	385.66	0.0716	600.4	10.807	22.67	13.31	1.64
	94.72	34.18	67.65	0.00	0.0593	10.22	449.6	385.96	0.0720	597.7	10.758	22.57	13.24	1.64
	95.74	34.12	67.67	0.00	0.0593	10.21	449.4	385.56	0.0725	610.2	10.984	23.04	13.56	1.64
	96.74	34.12	67.65	-0.00	0.0593	10.20	448.8	385.16	0.0733	615.3	11.075	23.24	13.69	1.64
	97.72	34.17	67.68	0.00	0.0592	10.19	448.2	384.58	0.0736	624.5	11.241	23.58	13.92	1.64
	98.81	34.20	67.65	-0.00	0.0592	10.19	448.3	384.83	0.0738	630.8	11.354	23.83	14.07	1.64
	99.73	34.24	67.67	-0.00	0.0591	10.16	447.2	383.79	0.0740	631.2	11.361	23.84	14.08	1.64
	100.72	34.26	67.62	0.00	0.0591	10.17	447.4	384.31	0.0742	629.1	11.323	23.78	14.03	1.64
	101.71	34.26	67.67	0.00	0.0591	10.16	446.9	383.56	0.0729	616.1	11.090	23.27	13.71	1.64
	102.73	34.27	67.70	-0.00	0.0591	10.18	447.8	384.20	0.0739	628.6	11.315	23.73	14.02	1.64
	103.72	34.26	67.68	-0.00	0.0591	10.16	447.1	383.74	0.0748	639.4	11.509	24.15	14.29	1.64
	104.74	34.25	67.65	0.00	0.0591	10.17	447.5	384.22	0.0749	638.9	11.499	24.13	14.27	1.64
	105.82	34.29	67.67	-0.00	0.0591	10.17	447.3	383.95	0.0757	647.5	11.655	24.46	14.48	1.64
	106.72	34.26	67.68	0.00	0.0589	10.14	446.0	382.82	0.0757	649.0	11.682	24.51	14.52	1.64
	107.72	34.31	67.68	0.00	0.0588	10.11	444.8	381.83	0.0767	659.3	11.867	24.90	14.76	1.64
	108.75	34.31	67.65	0.00	0.0587	10.08	443.6	380.96	0.0767	662.8	11.931	25.05	14.84	1.64
	109.73	34.26	67.65	0.00	0.0588	10.09	444.0	381.24	0.0757	656.9	11.823	24.82	14.70	1.64
	110.71	34.26	67.65	0.00	0.0589	10.12	445.2	382.28	0.0750	640.9	11.536	24.21	14.32	1.64
	111.73	34.24	67.68	0.00	0.0589	10.12	445.1	381.99	0.0750	641.7	11.550	24.23	14.34	1.64
	112.73	34.30	67.65	0.00	0.0589	10.12	445.1	382.26	0.0756	648.0	11.665	24.49	14.49	1.64
	113.79	34.26	67.70	0.00	0.0589	10.11	445.0	381.82	0.0761	658.3	11.849	24.85	14.73	1.64
	114.74	34.24	67.68	-0.00	0.0588	10.10	444.4	381.44	0.0764	661.7	11.911	24.99	14.82	1.64
	115.74	34.22	67.65	-0.00	0.0588	10.10	444.3	381.42	0.0764	662.2	11.920	25.02	14.83	1.64
	116.72	34.21	67.65	-0.00	0.0589	10.11	444.7	381.77	0.0747	637.6	11.477	24.08	14.24	1.64
	117.72	34.22	67.67	0.00	0.0590	10.13	445.8	382.60	0.0745	635.4	11.437	23.99	14.19	1.64
	118.73	34.24	67.65	-0.00	0.0590	10.13	445.8	382.74	0.0740	630.4	11.346	23.81	14.06	1.64
	119.72	34.28	67.70	0.00	0.0589	10.11	444.9	381.78	0.0745	633.1	11.395	23.90	14.13	1.64
	120.71	34.31	67.67	0.00	0.0589	10.13	445.7	382.59	0.0748	639.2	11.505	24.14	14.28	1.64
	121.74	34.24	67.67	-0.00	0.0589	10.12	445.2	382.15	0.0748	641.1	11.539	24.21	14.32	1.64
	122.73	34.32	67.70	0.00	0.0588	10.11	444.9	381.79	0.0746	637.7	11.478	24.08	14.25	1.64
	123.74	34.26	67.67	0.00	0.0588	10.10	444.6	381.62	0.0750	644.8	11.606	24.35	14.41	1.64
