Jul 25 2015 at 16:33:28
Frequency: 1.00Hz.
CO2
Zero:  Value:0.95  Date:18 Mar 2005	 at 07:22:33	
Span:  Value:1.00  Date:18 Mar 2005	 at 07:25:09	
H2O
Zero:  Value:0.71  Date:18 Mar 2005	 at 07:52:31	
Span:  Value:0.99  Date:18 Mar 2005	 at 11:44:01	
	Relative Time	Temperature	Pressure	Aux Input	CO2 Absorptance	CO2 mmol/m3	CO2 mg/m3	CO2 umol/mol	H2O Absorptance	H2O mmol/m3	H2O g/m3	H2O mmol/mol	H2O(°C)	Cooler Voltage
	0.30	33.50	67.68	0.00	0.0620	10.84	476.9	408.32	0.0585	390.4	7.027	14.71	6.85	1.70
	1.31	33.48	67.68	0.00	0.0616	10.74	472.7	404.67	0.0594	476.8	8.582	17.96	9.79	1.70
	2.31	33.47	67.72	0.00	0.0616	10.73	472.3	404.10	0.0603	465.8	8.384	17.53	9.44	1.70
	3.31	33.50	67.70	0.00	0.0618	10.75	473.1	404.90	0.0593	457.6	8.237	17.23	9.18	1.70
	4.31	33.55	67.70	0.00	0.0616	10.71	471.3	403.42	0.0593	455.8	8.204	17.17	9.13	1.70
	5.34	33.54	67.67	0.00	0.0616	10.71	471.4	403.65	0.0592	455.6	8.202	17.17	9.12	1.70
	6.38	33.55	67.70	0.00	0.0615	10.72	471.7	403.77	0.0592	456.0	8.209	17.18	9.13	1.70
	7.30	33.48	67.70	0.00	0.0615	10.70	471.0	403.08	0.0603	465.3	8.375	17.52	9.43	1.70
	8.31	33.47	67.68	-0.00	0.0614	10.67	469.6	402.03	0.0606	468.8	8.439	17.66	9.54	1.70
	9.33	33.50	67.68	-0.00	0.0615	10.70	470.8	403.08	0.0605	468.2	8.427	17.64	9.52	1.70
	10.31	33.52	67.68	0.00	0.0615	10.69	470.4	402.79	0.0607	466.1	8.390	17.56	9.46	1.70
	11.31	33.52	67.70	0.00	0.0614	10.71	471.2	403.27	0.0605	470.5	8.470	17.72	9.60	1.70
	12.32	33.56	67.70	-0.00	0.0614	10.66	469.1	401.58	0.0608	470.7	8.472	17.73	9.60	1.70
	13.32	33.56	67.68	-0.00	0.0612	10.63	467.8	400.62	0.0613	471.5	8.487	17.76	9.63	1.70
	14.31	33.61	67.70	0.00	0.0612	10.62	467.2	400.04	0.0618	483.0	8.694	18.20	9.99	1.70
	15.30	33.57	67.66	0.00	0.0611	10.62	467.1	400.11	0.0622	485.1	8.732	18.28	10.06	1.70
	16.32	33.59	67.70	0.00	0.0610	10.59	465.9	398.88	0.0631	494.3	8.898	18.62	10.34	1.70
	17.32	33.57	67.70	0.00	0.0609	10.57	464.9	397.98	0.0639	506.1	9.110	19.06	10.69	1.70
	18.33	33.54	67.68	-0.00	0.0609	10.55	464.4	397.62	0.0639	506.9	9.124	19.10	10.71	1.70
	19.31	33.52	67.70	0.00	0.0610	10.61	466.6	399.39	0.0633	499.9	8.998	18.83	10.50	1.70
	20.30	33.50	67.70	0.00	0.0610	10.59	465.8	398.66	0.0626	491.9	8.854	18.52	10.26	1.70
	21.33	33.45	67.65	-0.00	0.0610	10.57	465.0	398.24	0.0625	489.2	8.805	18.43	10.17	1.70
	22.31	33.50	67.68	0.00	0.0610	10.57	465.0	398.09	0.0626	491.2	8.842	18.51	10.24	1.70
	23.31	33.46	67.68	-0.00	0.0610	10.60	466.3	399.18	0.0628	495.2	8.913	18.65	10.36	1.70
	24.30	33.47	67.68	0.00	0.0610	10.59	466.0	398.97	0.0629	494.8	8.907	18.64	10.35	1.70
	25.32	33.47	67.68	0.00	0.0610	10.60	466.4	399.25	0.0632	499.2	8.985	18.80	10.48	1.70
	26.40	33.49	67.68	-0.00	0.0610	10.58	465.7	398.74	0.0630	498.4	8.972	18.78	10.46	1.70
	27.32	33.52	67.70	-0.00	0.0609	10.57	465.2	398.19	0.0626	490.4	8.828	18.47	10.22	1.70
	28.30	33.57	67.68	0.00	0.0611	10.61	466.7	399.63	0.0643	509.1	9.163	19.18	10.78	1.70
	29.31	33.55	67.70	0.00	0.0610	10.58	465.5	398.48	0.0635	502.9	9.053	18.94	10.59	1.70
	30.31	33.54	67.68	-0.00	0.0610	10.60	466.2	399.23	0.0632	502.2	9.040	18.92	10.57	1.70
	31.29	33.49	67.70	0.00	0.0611	10.59	465.8	398.67	0.0637	500.4	9.008	18.85	10.52	1.70
	32.31	33.54	67.70	0.00	0.0611	10.62	467.1	399.86	0.0640	508.9	9.161	19.17	10.77	1.70
	33.32	33.52	67.67	0.00	0.0610	10.59	465.8	398.89	0.0634	502.5	9.046	18.93	10.58	1.70
	34.38	33.51	67.70	0.00	0.0609	10.57	465.0	397.98	0.0631	498.8	8.979	18.78	10.47	1.70
	35.34	33.57	67.70	-0.00	0.0610	10.59	465.9	398.86	0.0633	501.1	9.019	18.87	10.54	1.70
	36.32	33.57	67.68	0.00	0.0610	10.58	465.4	398.57	0.0638	502.9	9.051	18.95	10.59	1.70
	37.38	33.54	67.70	0.00	0.0611	10.59	466.1	398.98	0.0643	511.5	9.207	19.27	10.85	1.70
	38.30	33.54	67.65	0.00	0.0610	10.59	466.0	399.16	0.0640	509.6	9.172	19.20	10.79	1.70
	39.33	33.55	67.67	-0.00	0.0608	10.56	464.5	397.75	0.0635	503.0	9.054	18.95	10.60	1.70
	40.31	33.57	67.67	0.00	0.0610	10.58	465.4	398.56	0.0635	502.5	9.044	18.93	10.58	1.70
	41.29	33.56	67.67	0.00	0.0609	10.56	464.8	398.03	0.0630	495.0	8.911	18.65	10.36	1.70
	42.31	33.60	67.67	0.00	0.0609	10.56	464.7	398.03	0.0632	502.6	9.046	18.94	10.59	1.70
	43.31	33.58	67.72	0.00	0.0609	10.57	465.3	398.17	0.0632	498.5	8.973	18.77	10.46	1.69
	44.38	33.52	67.68	0.00	0.0610	10.59	466.1	399.10	0.0633	500.2	9.003	18.84	10.51	1.70
	45.33	33.56	67.68	-0.00	0.0608	10.55	464.4	397.68	0.0644	512.9	9.231	19.32	10.89	1.70
	46.33	33.58	67.72	-0.00	0.0608	10.53	463.3	396.54	0.0646	514.2	9.256	19.36	10.93	1.69
	47.33	33.60	67.68	0.00	0.0608	10.51	462.4	396.06	0.0660	524.2	9.436	19.76	11.22	1.70
	48.33	33.62	67.70	-0.00	0.0606	10.48	461.0	394.76	0.0653	521.9	9.394	19.66	11.16	1.70
	49.33	33.67	67.70	-0.00	0.0604	10.47	460.5	394.40	0.0655	526.4	9.475	19.83	11.29	1.69
	50.31	33.69	67.65	0.00	0.0605	10.48	461.3	395.32	0.0661	533.2	9.598	20.11	11.48	1.70
	51.31	33.73	67.67	0.00	0.0605	10.49	461.5	395.43	0.0657	530.7	9.553	20.01	11.41	1.70
	52.31	33.76	67.70	0.00	0.0605	10.44	459.2	393.32	0.0658	524.8	9.446	19.78	11.24	1.70
	53.31	33.68	67.68	0.00	0.0605	10.47	460.7	394.64	0.0657	528.6	9.515	19.93	11.35	1.70
	54.30	33.73	67.67	0.00	0.0605	10.49	461.6	395.51	0.0663	533.3	9.600	20.11	11.49	1.69
	55.30	33.78	67.68	0.00	0.0606	10.50	462.1	396.01	0.0671	544.3	9.798	20.53	11.80	1.70
	56.30	33.73	67.70	0.00	0.0607	10.51	462.3	395.97	0.0677	549.3	9.888	20.70	11.93	1.70
	57.31	33.82	67.68	0.00	0.0605	10.48	461.2	395.28	0.0666	539.8	9.716	20.36	11.67	1.70
	58.33	33.79	67.70	-0.00	0.0606	10.48	461.1	395.03	0.0668	539.0	9.701	20.32	11.65	1.70
	59.31	33.79	67.68	0.00	0.0606	10.48	461.2	395.21	0.0671	542.7	9.768	20.46	11.75	1.69
	60.33	33.80	67.70	-0.00	0.0605	10.47	460.5	394.56	0.0673	545.0	9.809	20.54	11.82	1.69
	61.32	33.77	67.70	-0.00	0.0605	10.47	460.7	394.69	0.0675	548.7	9.876	20.68	11.92	1.70
	62.31	33.75	67.68	0.00	0.0605	10.48	460.9	394.94	0.0673	547.1	9.849	20.63	11.87	1.70
	63.31	33.68	67.67	0.00	0.0606	10.49	461.6	395.50	0.0683	558.3	10.050	21.05	12.18	1.70
	64.40	33.66	67.67	-0.00	0.0606	10.49	461.5	395.38	0.0681	557.9	10.042	21.03	12.17	1.69
	65.32	33.67	67.70	-0.00	0.0604	10.46	460.4	394.28	0.0684	560.3	10.085	21.11	12.23	1.69
	66.32	33.63	67.67	-0.00	0.0605	10.47	460.6	394.57	0.0690	566.0	10.188	21.33	12.38	1.69
	67.31	33.60	67.65	0.00	0.0603	10.43	459.1	393.35	0.0684	561.0	10.098	21.15	12.25	1.69
	68.31	33.60	67.68	0.00	0.0604	10.43	458.8	392.94	0.0681	560.1	10.081	21.11	12.22	1.70
	69.30	33.65	67.68	0.00	0.0605	10.46	460.4	394.36	0.0679	555.1	9.993	20.92	12.09	1.69
	70.31	33.63	67.68	0.00	0.0603	10.43	458.9	393.10	0.0685	558.9	10.060	21.06	12.19	1.69
	71.32	33.63	67.72	0.00	0.0604	10.46	460.2	393.88	0.0682	559.6	10.072	21.07	12.21	1.69
	72.31	33.60	67.68	0.00	0.0603	10.44	459.5	393.55	0.0691	570.9	10.277	21.52	12.51	1.69
	73.31	33.61	67.70	0.00	0.0602	10.41	458.1	392.20	0.0704	582.4	10.484	21.94	12.82	1.70
	74.33	33.65	67.72	-0.00	0.0601	10.40	457.5	391.65	0.0707	589.4	10.610	22.20	13.00	1.70
	75.32	33.65	67.70	0.00	0.0602	10.40	457.8	392.00	0.0708	590.0	10.620	22.23	13.02	1.69
	76.30	33.64	67.68	0.00	0.0603	10.41	458.0	392.33	0.0711	593.1	10.675	22.35	13.10	1.69
	77.33	33.66	67.70	-0.00	0.0602	10.40	457.4	391.70	0.0711	593.3	10.679	22.35	13.10	1.69
	78.31	33.68	67.67	0.00	0.0601	10.37	456.3	390.93	0.0709	589.2	10.606	22.21	13.00	1.69
	79.30	33.73	67.70	0.00	0.0600	10.37	456.1	390.71	0.0705	586.3	10.553	22.10	12.92	1.70
	80.31	33.71	67.68	0.00	0.0599	10.35	455.4	390.18	0.0709	593.2	10.678	22.36	13.10	1.70
	81.32	33.69	67.68	-0.00	0.0600	10.37	456.1	390.75	0.0711	593.1	10.675	22.36	13.10	1.69
	82.31	33.73	67.65	0.00	0.0601	10.38	456.8	391.59	0.0707	588.6	10.594	22.20	12.99	1.69
	83.32	33.71	67.68	0.00	0.0602	10.40	457.5	391.95	0.0704	584.7	10.524	22.04	12.88	1.69
	84.30	33.68	67.68	0.00	0.0601	10.40	457.7	392.11	0.0714	597.3	10.751	22.51	13.21	1.69
	85.32	33.71	67.70	0.00	0.0601	10.40	457.5	391.81	0.0715	597.8	10.761	22.53	13.22	1.70
	86.33	33.73	67.70	-0.00	0.0601	10.39	457.3	391.68	0.0721	606.7	10.921	22.87	13.45	1.70
	87.31	33.73	67.68	0.00	0.0601	10.39	457.0	391.55	0.0725	611.2	11.001	23.04	13.56	1.69
	88.31	33.75	67.70	0.00	0.0600	10.36	455.7	390.31	0.0718	601.3	10.824	22.66	13.31	1.69
	89.33	33.71	67.68	-0.00	0.0600	10.36	456.0	390.68	0.0717	603.1	10.856	22.73	13.36	1.69
	90.31	33.73	67.68	-0.00	0.0599	10.35	455.3	390.10	0.0719	602.2	10.839	22.70	13.33	1.69
	91.31	33.73	67.67	0.00	0.0599	10.35	455.5	390.31	0.0726	611.6	11.009	23.06	13.57	1.70
	92.32	33.76	67.70	0.00	0.0597	10.31	453.6	388.60	0.0730	614.5	11.062	23.16	13.65	1.70
	93.31	33.78	67.68	0.00	0.0598	10.32	454.3	389.26	0.0741	624.1	11.235	23.53	13.89	1.69
	94.30	33.75	67.70	0.00	0.0597	10.29	452.9	387.92	0.0740	626.5	11.277	23.61	13.94	1.69
	95.39	33.73	67.68	-0.00	0.0599	10.33	454.3	389.24	0.0734	619.3	11.148	23.35	13.77	1.69
	96.31	33.73	67.68	-0.00	0.0598	10.34	454.8	389.66	0.0729	619.6	11.153	23.36	13.77	1.69
	97.31	33.76	67.68	-0.00	0.0599	10.34	454.9	389.85	0.0745	635.6	11.441	23.96	14.17	1.70
	98.31	33.73	67.70	-0.00	0.0599	10.33	454.5	389.30	0.0736	629.8	11.336	23.73	14.02	1.70
	99.31	33.76	67.68	-0.00	0.0598	10.33	454.5	389.48	0.0746	635.9	11.446	23.97	14.17	1.69
	100.31	33.76	67.68	0.00	0.0598	10.32	454.0	389.01	0.0750	639.2	11.506	24.10	14.25	1.69
	101.32	33.73	67.65	-0.00	0.0598	10.33	454.4	389.50	0.0756	648.3	11.670	24.45	14.47	1.69
	102.32	33.75	67.68	0.00	0.0598	10.33	454.4	389.35	0.0758	652.0	11.736	24.58	14.56	1.69
	103.30	33.78	67.70	0.00	0.0597	10.30	453.2	388.23	0.0754	649.1	11.685	24.47	14.49	1.70
	104.32	33.76	67.65	0.00	0.0596	10.27	452.1	387.55	0.0755	649.2	11.685	24.49	14.49	1.69
	105.32	33.74	67.70	0.00	0.0596	10.29	452.6	387.64	0.0758	655.3	11.796	24.70	14.64	1.69
	106.31	33.75	67.68	0.00	0.0598	10.29	452.8	387.98	0.0756	647.1	11.648	24.40	14.44	1.69
	107.33	33.76	67.70	0.00	0.0597	10.31	453.4	388.41	0.0758	650.9	11.717	24.53	14.54	1.69
	108.33	33.81	67.68	-0.00	0.0596	10.28	452.2	387.54	0.0755	648.2	11.667	24.44	14.47	1.69
	109.33	33.77	67.68	0.00	0.0596	10.27	451.7	387.11	0.0759	654.9	11.787	24.69	14.63	1.69
	110.29	33.82	67.68	0.00	0.0596	10.28	452.5	387.82	0.0760	655.4	11.797	24.72	14.64	1.69
	111.31	33.79	67.68	0.00	0.0596	10.27	452.1	387.43	0.0757	649.9	11.699	24.51	14.51	1.69
	112.32	33.78	67.65	-0.00	0.0598	10.30	453.4	388.70	0.0757	652.4	11.744	24.61	14.57	1.69
	113.32	33.78	67.70	0.00	0.0597	10.31	453.5	388.47	0.0761	656.0	11.808	24.73	14.66	1.69
	114.33	33.75	67.68	0.00	0.0598	10.31	453.5	388.57	0.0762	656.3	11.813	24.74	14.66	1.69
	115.32	33.76	67.65	0.00	0.0597	10.30	453.4	388.65	0.0766	661.9	11.915	24.97	14.80	1.69
	116.31	33.73	67.68	0.00	0.0597	10.30	453.0	388.14	0.0761	656.0	11.807	24.73	14.65	1.69
	117.31	33.70	67.67	0.00	0.0598	10.32	454.0	388.99	0.0765	658.3	11.849	24.82	14.71	1.70
	118.31	33.70	67.72	0.00	0.0598	10.33	454.3	388.97	0.0761	655.3	11.796	24.69	14.64	1.69
	119.33	33.76	67.70	0.00	0.0597	10.30	453.4	388.37	0.0771	665.5	11.979	25.08	14.88	1.69
	120.32	33.78	67.68	0.00	0.0597	10.30	453.0	388.21	0.0768	666.7	12.001	25.14	14.91	1.69
