Jul 27 2015 at 9:21:16
Frequency: 1.00Hz.
CO2
Zero:  Value:0.95  Date:18 Mar 2005	 at 07:22:33	
Span:  Value:1.00  Date:18 Mar 2005	 at 07:25:09	
H2O
Zero:  Value:0.71  Date:18 Mar 2005	 at 07:52:31	
Span:  Value:0.99  Date:18 Mar 2005	 at 11:44:01	
	Relative Time	Temperature	Pressure	Aux Input	CO2 Absorptance	CO2 mmol/m3	CO2 mg/m3	CO2 umol/mol	H2O Absorptance	H2O mmol/m3	H2O g/m3	H2O mmol/mol	H2O(°C)	Cooler Voltage
	0.70	19.73	69.68	-0.00	0.0611	10.57	465.2	369.50	0.0764	642.8	11.571	22.46	13.62	1.49
	1.70	19.73	69.63	-0.00	0.0609	10.49	461.7	366.92	0.0769	656.4	11.815	22.95	13.94	1.49
	2.70	19.71	69.66	0.00	0.0613	10.56	464.8	369.27	0.0760	650.5	11.709	22.74	13.80	1.49
	3.71	19.75	69.66	-0.00	0.0612	10.55	464.1	368.73	0.0763	649.4	11.690	22.70	13.78	1.49
	4.71	19.75	69.66	-0.00	0.0608	10.45	459.8	365.36	0.0778	672.1	12.098	23.50	14.31	1.49
	5.71	19.76	69.66	0.00	0.0611	10.51	462.5	367.46	0.0769	660.1	11.882	23.08	14.03	1.49
	6.71	19.76	69.63	-0.00	0.0611	10.52	463.0	368.00	0.0771	658.9	11.860	23.04	14.00	1.49
	7.69	19.76	69.66	0.00	0.0610	10.50	461.8	366.98	0.0770	658.7	11.856	23.03	14.00	1.49
	8.69	19.76	69.66	0.00	0.0610	10.50	462.1	367.16	0.0770	659.9	11.878	23.07	14.03	1.49
	9.70	19.78	69.68	-0.00	0.0609	10.48	461.3	366.43	0.0763	650.2	11.703	22.72	13.80	1.49
	10.70	19.76	69.66	0.00	0.0609	10.46	460.3	365.78	0.0756	641.4	11.546	22.43	13.59	1.49
	11.72	19.76	69.66	-0.00	0.0610	10.50	462.1	367.15	0.0756	640.7	11.533	22.40	13.57	1.49
	12.70	19.76	69.66	-0.00	0.0609	10.48	461.1	366.40	0.0757	637.3	11.471	22.28	13.49	1.49
	13.70	19.75	69.66	0.00	0.0607	10.43	458.8	364.50	0.0764	650.0	11.701	22.72	13.79	1.49
	14.70	19.78	69.66	0.00	0.0608	10.46	460.2	365.73	0.0763	649.8	11.696	22.72	13.79	1.49
	15.71	19.76	69.66	-0.00	0.0609	10.47	460.8	366.18	0.0760	645.8	11.625	22.58	13.69	1.49
	16.69	19.76	69.66	0.00	0.0608	10.46	460.1	365.58	0.0755	640.0	11.520	22.38	13.56	1.49
	17.77	19.76	69.66	-0.00	0.0608	10.45	459.9	365.45	0.0752	634.9	11.428	22.20	13.43	1.49
	18.78	19.78	69.60	-0.00	0.0609	10.48	461.3	366.83	0.0754	638.2	11.488	22.33	13.51	1.49
	19.69	19.79	69.63	0.00	0.0608	10.47	460.6	366.12	0.0752	636.3	11.454	22.26	13.47	1.49
	20.72	19.80	69.66	-0.00	0.0607	10.44	459.2	364.93	0.0751	634.9	11.428	22.20	13.43	1.49
	21.70	19.78	69.63	-0.00	0.0608	10.46	460.3	365.89	0.0756	640.7	11.533	22.41	13.57	1.49
	22.70	19.83	69.66	0.00	0.0609	10.47	460.8	366.20	0.0757	642.4	11.564	22.47	13.62	1.49
	23.68	19.81	69.63	0.00	0.0609	10.47	460.9	366.40	0.0757	642.4	11.563	22.47	13.62	1.49
	24.70	19.81	69.66	0.00	0.0609	10.48	461.1	366.44	0.0761	646.6	11.638	22.61	13.71	1.49
	25.69	19.81	69.66	0.00	0.0608	10.45	460.0	365.54	0.0760	645.9	11.626	22.58	13.70	1.49
	26.71	19.81	69.63	0.00	0.0607	10.43	459.1	364.98	0.0761	646.4	11.635	22.61	13.71	1.49
	27.71	19.80	69.66	0.00	0.0605	10.39	456.9	363.11	0.0767	654.3	11.778	22.88	13.90	1.49
	28.77	19.79	69.63	0.00	0.0606	10.41	458.1	364.16	0.0765	652.3	11.742	22.82	13.85	1.49
	29.73	19.81	69.63	0.00	0.0605	10.40	457.4	363.64	0.0767	652.4	11.744	22.82	13.85	1.49
	30.78	19.81	69.66	0.00	0.0605	10.38	456.8	363.03	0.0772	660.8	11.894	23.11	14.05	1.49
	31.76	19.81	69.66	-0.00	0.0605	10.40	457.6	363.63	0.0775	663.4	11.940	23.20	14.11	1.50
	32.70	19.83	69.66	0.00	0.0606	10.41	457.8	363.88	0.0773	663.3	11.939	23.19	14.11	1.49
	33.71	19.83	69.66	-0.00	0.0606	10.41	458.1	364.05	0.0769	658.8	11.858	23.04	14.00	1.49
	34.68	19.83	69.63	0.00	0.0606	10.42	458.4	364.47	0.0766	653.8	11.768	22.87	13.89	1.49
	35.69	19.85	69.66	0.00	0.0605	10.40	457.5	363.64	0.0765	652.1	11.737	22.80	13.85	1.49
	36.69	19.85	69.66	0.00	0.0604	10.38	456.5	362.85	0.0766	653.5	11.762	22.85	13.88	1.50
	37.71	19.85	69.66	0.00	0.0604	10.36	456.0	362.46	0.0767	655.0	11.790	22.91	13.92	1.50
	38.69	19.85	69.66	0.00	0.0602	10.33	454.5	361.24	0.0771	657.7	11.838	23.00	13.98	1.49
	39.70	19.86	69.66	0.00	0.0601	10.31	453.5	360.44	0.0779	668.9	12.041	23.40	14.24	1.50
	40.70	19.85	69.66	-0.00	0.0602	10.33	454.4	361.13	0.0781	672.0	12.096	23.50	14.31	1.50
	41.68	19.83	69.66	0.00	0.0601	10.31	453.8	360.68	0.0781	672.7	12.109	23.53	14.33	1.50
	42.78	19.86	69.66	0.00	0.0600	10.29	452.6	359.77	0.0783	674.5	12.141	23.59	14.37	1.50
	43.71	19.86	69.68	-0.00	0.0601	10.29	452.9	359.84	0.0785	678.5	12.213	23.72	14.46	1.50
	44.70	19.86	69.63	0.00	0.0602	10.32	454.3	361.22	0.0784	676.6	12.180	23.67	14.42	1.50
	45.69	19.86	69.63	0.00	0.0602	10.32	454.0	361.04	0.0783	674.7	12.145	23.61	14.37	1.50
	46.69	19.88	69.66	0.00	0.0601	10.29	452.9	360.01	0.0787	679.4	12.229	23.76	14.48	1.50
	47.69	19.86	69.66	0.00	0.0602	10.31	453.8	360.69	0.0777	669.9	12.058	23.43	14.26	1.50
	48.69	19.88	69.63	0.00	0.0603	10.34	454.8	361.66	0.0774	665.3	11.975	23.28	14.16	1.50
	49.69	19.88	69.66	0.00	0.0603	10.36	455.7	362.25	0.0769	657.8	11.841	23.01	13.98	1.50
	50.70	19.88	69.63	0.00	0.0594	10.17	447.5	355.83	0.0793	685.3	12.335	23.97	14.62	1.50
	51.70	19.88	69.66	0.00	0.0591	10.08	443.6	352.62	0.0806	702.7	12.649	24.58	15.01	1.50
	52.71	19.88	69.66	-0.00	0.0592	10.12	445.1	353.85	0.0806	705.1	12.692	24.66	15.06	1.50
	53.70	19.88	69.66	-0.00	0.0592	10.11	444.8	353.56	0.0806	706.4	12.715	24.71	15.09	1.50
	54.69	19.90	69.68	0.00	0.0594	10.13	445.7	354.16	0.0802	703.3	12.660	24.59	15.02	1.50
	55.69	19.90	69.66	-0.00	0.0597	10.22	449.5	357.29	0.0794	689.8	12.416	24.13	14.72	1.50
	56.69	19.90	69.66	0.00	0.0592	10.13	445.8	354.37	0.0799	697.0	12.546	24.38	14.88	1.50
	57.70	19.86	69.66	0.00	0.0596	10.18	447.9	356.05	0.0792	687.6	12.377	24.05	14.67	1.50
	58.69	19.90	69.66	0.00	0.0589	10.10	444.4	353.30	0.0807	699.1	12.585	24.45	14.93	1.50
	59.69	19.90	69.66	0.00	0.0589	10.00	439.9	349.68	0.0810	716.0	12.887	25.04	15.30	1.50
	60.69	19.90	69.63	0.00	0.0591	10.09	444.2	353.23	0.0803	701.0	12.617	24.53	14.97	1.50
	61.70	19.91	69.66	0.00	0.0590	10.07	443.2	352.36	0.0807	710.1	12.782	24.84	15.17	1.50
	62.68	19.91	69.66	0.00	0.0592	10.10	444.2	353.16	0.0803	701.6	12.629	24.54	14.98	1.50
	63.71	19.91	69.66	-0.00	0.0592	10.09	443.9	352.91	0.0803	701.7	12.631	24.55	14.99	1.50
	64.71	19.91	69.63	0.00	0.0593	10.12	445.4	354.18	0.0801	699.9	12.598	24.49	14.94	1.50
	65.71	19.93	69.66	-0.00	0.0600	10.25	450.9	358.45	0.0787	683.2	12.297	23.90	14.57	1.50
	66.71	19.91	69.66	-0.00	0.0594	10.18	447.8	356.01	0.0796	684.6	12.323	23.95	14.60	1.50
	67.70	19.93	69.66	0.00	0.0586	9.98	439.1	349.12	0.0818	721.1	12.980	25.23	15.41	1.50
	68.69	19.93	69.66	0.00	0.0589	10.05	442.1	351.47	0.0808	710.4	12.788	24.85	15.18	1.50
	69.70	19.93	69.63	-0.00	0.0591	10.08	443.7	352.91	0.0806	704.2	12.675	24.64	15.04	1.50
	70.72	19.95	69.63	-0.00	0.0589	10.04	441.7	351.30	0.0809	707.6	12.736	24.76	15.12	1.50
	71.71	19.93	69.63	-0.00	0.0583	9.95	437.8	348.21	0.0830	729.5	13.131	25.53	15.59	1.50
	72.70	19.95	69.63	0.00	0.0579	9.83	432.6	344.09	0.0834	745.0	13.410	26.07	15.92	1.50
	73.69	19.95	69.68	0.00	0.0586	9.95	437.7	347.85	0.0817	724.9	13.048	25.35	15.49	1.50
	74.71	19.96	69.63	-0.00	0.0590	10.08	443.3	352.61	0.0807	706.0	12.708	24.71	15.08	1.50
	75.71	19.95	69.66	-0.00	0.0588	10.01	440.3	350.09	0.0818	719.5	12.951	25.17	15.38	1.50
	76.78	19.95	69.63	-0.00	0.0584	9.94	437.5	347.92	0.0829	732.9	13.192	25.65	15.66	1.50
	77.69	19.95	69.66	0.00	0.0580	9.84	432.8	344.11	0.0833	743.7	13.387	26.02	15.89	1.50
	78.72	19.95	69.66	-0.00	0.0583	9.88	434.9	345.77	0.0825	733.9	13.210	25.67	15.68	1.50
	79.69	19.97	69.61	0.00	0.0590	10.04	441.9	351.58	0.0809	711.2	12.802	24.90	15.20	1.50
	80.70	19.96	69.63	0.00	0.0593	10.12	445.3	354.19	0.0802	701.6	12.630	24.56	14.99	1.50
	81.70	19.96	69.66	-0.00	0.0594	10.15	446.5	355.00	0.0802	699.9	12.599	24.49	14.95	1.50
	82.77	19.96	69.68	-0.00	0.0592	10.12	445.3	353.92	0.0804	701.2	12.622	24.52	14.98	1.50
	83.68	19.98	69.66	0.00	0.0594	10.14	446.2	354.81	0.0799	697.6	12.556	24.41	14.90	1.50
	84.79	19.96	69.66	-0.00	0.0591	10.10	444.3	353.25	0.0805	702.9	12.653	24.59	15.01	1.51
	85.77	19.96	69.65	-0.00	0.0592	10.11	444.9	353.78	0.0805	702.6	12.646	24.58	15.01	1.50
	86.69	20.00	69.66	0.00	0.0589	10.04	441.7	351.27	0.0812	712.6	12.827	24.93	15.23	1.50
	87.69	20.00	69.68	0.00	0.0595	10.15	446.7	355.06	0.0797	697.4	12.553	24.39	14.89	1.50
	88.70	20.00	69.65	-0.00	0.0597	10.23	450.0	357.84	0.0790	683.6	12.305	23.92	14.58	1.50
	89.69	20.00	69.63	-0.00	0.0595	10.18	448.0	356.42	0.0794	687.8	12.380	24.07	14.68	1.51
	90.78	20.00	69.66	-0.00	0.0593	10.13	445.8	354.53	0.0802	699.0	12.582	24.46	14.93	1.51
	91.71	19.98	69.66	-0.00	0.0592	10.11	444.6	353.55	0.0802	701.7	12.631	24.55	14.99	1.51
	92.70	20.00	69.66	-0.00	0.0595	10.17	447.6	355.90	0.0795	691.8	12.452	24.20	14.77	1.51
	93.69	20.00	69.63	0.00	0.0595	10.19	448.2	356.54	0.0799	693.6	12.486	24.28	14.81	1.51
	94.69	20.00	69.65	-0.00	0.0592	10.11	444.9	353.80	0.0808	707.0	12.726	24.74	15.11	1.51
	95.74	20.00	69.63	-0.00	0.0590	10.06	442.5	352.02	0.0814	715.8	12.884	25.05	15.30	1.51
	96.72	20.01	69.63	0.00	0.0589	10.05	442.3	351.87	0.0815	717.0	12.906	25.10	15.33	1.51
	97.72	20.00	69.66	-0.00	0.0586	9.96	438.1	348.37	0.0822	727.8	13.100	25.46	15.56	1.51
	98.70	20.01	69.63	0.00	0.0592	10.10	444.2	353.40	0.0805	705.3	12.695	24.69	15.07	1.51
	99.70	20.01	69.63	0.00	0.0594	10.14	446.3	355.05	0.0802	701.1	12.619	24.54	14.98	1.51
	100.68	20.03	69.63	0.00	0.0592	10.12	445.1	354.15	0.0806	704.0	12.672	24.64	15.04	1.51
	101.71	20.01	69.66	0.00	0.0594	10.13	445.6	354.38	0.0802	701.9	12.634	24.56	14.99	1.51
	102.71	20.01	69.68	0.00	0.0596	10.20	448.9	356.88	0.0796	693.5	12.483	24.26	14.81	1.51
	103.77	19.99	69.66	0.00	0.0591	10.10	444.5	353.50	0.0805	703.5	12.664	24.62	15.03	1.51
	104.69	20.01	69.66	-0.00	0.0590	10.07	442.9	352.23	0.0806	704.8	12.687	24.66	15.06	1.51
	105.71	20.03	69.66	-0.00	0.0588	10.01	440.5	350.37	0.0814	716.7	12.900	25.08	15.32	1.51
	106.69	20.01	69.66	0.00	0.0589	10.04	441.7	351.26	0.0813	714.9	12.869	25.02	15.28	1.51
	107.78	20.01	69.66	-0.00	0.0588	10.03	441.3	350.97	0.0817	719.1	12.944	25.16	15.37	1.51
	108.70	20.05	69.66	-0.00	0.0588	10.01	440.6	350.42	0.0817	721.1	12.980	25.24	15.42	1.51
	109.76	20.07	69.66	0.00	0.0585	9.96	438.2	348.53	0.0825	732.2	13.180	25.63	15.66	1.51
	110.70	20.05	69.66	-0.00	0.0584	9.95	437.9	348.29	0.0828	733.8	13.209	25.68	15.69	1.51
	111.70	20.05	69.66	-0.00	0.0580	9.90	435.4	346.32	0.0840	739.8	13.317	25.89	15.82	1.51
	112.69	20.05	69.63	0.00	0.0578	9.78	430.4	342.46	0.0842	757.1	13.627	26.50	16.18	1.51
	113.68	20.05	69.66	0.00	0.0577	9.80	431.0	342.78	0.0853	768.2	13.828	26.88	16.41	1.51
	114.74	20.06	69.66	0.00	0.0580	9.81	431.5	343.17	0.0845	764.4	13.760	26.75	16.33	1.51
	115.69	20.06	69.66	-0.00	0.0585	9.95	437.6	348.10	0.0828	737.0	13.265	25.79	15.76	1.51
	116.70	20.06	69.66	0.00	0.0587	10.00	440.0	349.94	0.0822	726.9	13.084	25.44	15.54	1.51
	117.69	20.06	69.66	0.00	0.0586	9.98	439.0	349.19	0.0821	724.7	13.045	25.36	15.50	1.51
	118.70	20.06	69.66	0.00	0.0587	10.00	440.2	350.12	0.0820	723.9	13.030	25.33	15.48	1.51
	119.70	20.06	69.63	-0.00	0.0587	10.00	440.2	350.21	0.0821	726.9	13.084	25.45	15.54	1.51
	120.70	20.06	69.66	0.00	0.0590	10.06	442.4	351.92	0.0819	721.3	12.984	25.25	15.42	1.51
