Jul 27 2015 at 10:56:47
Frequency: 1.00Hz.
CO2
Zero:  Value:0.95  Date:18 Mar 2005	 at 07:22:33	
Span:  Value:1.00  Date:18 Mar 2005	 at 07:25:09	
H2O
Zero:  Value:0.71  Date:18 Mar 2005	 at 07:52:31	
Span:  Value:0.99  Date:18 Mar 2005	 at 11:44:01	
	Relative Time	Temperature	Pressure	Aux Input	CO2 Absorptance	CO2 mmol/m3	CO2 mg/m3	CO2 umol/mol	H2O Absorptance	H2O mmol/m3	H2O g/m3	H2O mmol/mol	H2O(°C)	Cooler Voltage
	0.47	28.56	69.58	0.00	0.0628	10.90	479.4	392.84	0.0637	498.7	8.976	17.98	10.22	1.53
	1.47	28.59	69.58	0.00	0.0627	10.89	479.1	392.59	0.0642	503.2	9.058	18.14	10.36	1.53
	2.48	28.58	69.60	-0.00	0.0625	10.84	477.1	390.83	0.0643	504.8	9.086	18.19	10.40	1.53
	3.46	28.55	69.58	0.00	0.0624	10.81	475.5	389.62	0.0643	504.1	9.075	18.17	10.38	1.53
	4.46	28.57	69.58	0.00	0.0622	10.77	474.0	388.37	0.0640	503.0	9.054	18.13	10.35	1.53
	5.47	28.59	69.58	0.00	0.0622	10.77	473.9	388.34	0.0643	506.0	9.108	18.24	10.44	1.53
	6.46	28.59	69.60	0.00	0.0622	10.77	473.9	388.18	0.0643	506.1	9.110	18.24	10.44	1.53
	7.47	28.58	69.61	0.00	0.0622	10.76	473.3	387.70	0.0646	509.1	9.163	18.35	10.53	1.53
	8.47	28.59	69.60	-0.00	0.0621	10.74	472.7	387.25	0.0647	508.6	9.154	18.33	10.52	1.53
	9.47	28.59	69.58	0.00	0.0621	10.75	472.9	387.51	0.0656	518.6	9.335	18.70	10.81	1.53
	10.47	28.63	69.60	-0.00	0.0619	10.71	471.4	386.20	0.0654	517.1	9.308	18.64	10.77	1.53
	11.45	28.56	69.58	0.00	0.0619	10.72	471.7	386.51	0.0653	518.2	9.328	18.68	10.80	1.53
	12.46	28.60	69.58	0.00	0.0618	10.70	470.6	385.66	0.0664	527.0	9.487	19.00	11.05	1.53
	13.48	28.59	69.55	-0.00	0.0619	10.69	470.5	385.68	0.0661	526.8	9.482	19.00	11.05	1.53
	14.49	28.62	69.58	-0.00	0.0619	10.71	471.2	386.17	0.0656	521.8	9.393	18.82	10.91	1.53
	15.46	28.60	69.58	0.00	0.0620	10.72	471.7	386.59	0.0660	523.1	9.416	18.86	10.94	1.53
	16.49	28.60	69.58	-0.00	0.0619	10.70	470.9	385.91	0.0660	525.1	9.451	18.93	11.00	1.53
	17.47	28.60	69.60	0.00	0.0618	10.68	470.1	385.11	0.0663	525.8	9.465	18.95	11.02	1.53
	18.47	28.60	69.58	0.00	0.0619	10.70	471.0	385.95	0.0662	526.8	9.482	18.99	11.05	1.53
	19.47	28.60	69.58	0.00	0.0617	10.68	469.9	385.11	0.0668	532.7	9.588	19.21	11.21	1.53
	20.47	28.62	69.58	-0.00	0.0617	10.67	469.3	384.64	0.0679	540.7	9.733	19.50	11.44	1.53
	21.47	28.60	69.58	0.00	0.0617	10.65	468.5	383.97	0.0680	550.5	9.909	19.85	11.71	1.53
	22.46	28.62	69.57	-0.00	0.0616	10.62	467.5	383.14	0.0682	547.1	9.848	19.73	11.62	1.53
	23.48	28.60	69.55	-0.00	0.0614	10.59	465.8	381.87	0.0687	563.2	10.137	20.31	12.06	1.53
	24.46	28.60	69.58	0.00	0.0615	10.64	468.1	383.63	0.0690	552.1	9.937	19.91	11.75	1.53
	25.46	28.60	69.58	0.00	0.0614	10.59	466.0	381.90	0.0694	562.7	10.129	20.29	12.04	1.53
	26.47	28.60	69.58	0.00	0.0614	10.58	465.5	381.43	0.0690	559.3	10.068	20.17	11.95	1.53
	27.46	28.60	69.58	0.00	0.0612	10.55	464.3	380.45	0.0694	565.8	10.184	20.40	12.13	1.53
	28.47	28.60	69.55	0.00	0.0614	10.59	466.1	382.15	0.0691	562.0	10.117	20.27	12.03	1.53
	29.50	28.60	69.60	0.00	0.0613	10.58	465.5	381.33	0.0693	563.2	10.138	20.30	12.06	1.53
	30.48	28.65	69.58	-0.00	0.0613	10.59	466.0	381.90	0.0693	563.3	10.139	20.31	12.06	1.53
	31.50	28.62	69.60	-0.00	0.0614	10.59	466.0	381.77	0.0699	570.8	10.274	20.57	12.26	1.53
	32.46	28.62	69.58	-0.00	0.0614	10.59	465.9	381.79	0.0701	572.6	10.307	20.65	12.31	1.53
	33.48	28.62	69.58	-0.00	0.0613	10.56	464.5	380.66	0.0703	579.2	10.425	20.88	12.48	1.53
	34.46	28.62	69.58	0.00	0.0612	10.54	464.0	380.23	0.0703	577.7	10.399	20.83	12.44	1.53
	35.47	28.62	69.60	0.00	0.0612	10.54	463.8	379.96	0.0721	592.7	10.668	21.37	12.84	1.53
	36.47	28.58	69.58	-0.00	0.0612	10.55	464.2	380.38	0.0721	588.9	10.600	21.23	12.74	1.53
	37.47	28.60	69.60	-0.00	0.0611	10.53	463.5	379.68	0.0729	601.0	10.817	21.66	13.05	1.53
	38.47	28.64	69.60	0.00	0.0610	10.50	461.8	378.39	0.0724	601.5	10.827	21.68	13.06	1.53
	39.59	28.64	69.55	-0.00	0.0612	10.55	464.0	380.45	0.0727	605.4	10.897	21.84	13.16	1.53
	40.47	28.66	69.58	0.00	0.0612	10.54	464.0	380.28	0.0727	603.5	10.863	21.76	13.11	1.53
	41.47	28.64	69.58	0.00	0.0612	10.53	463.3	379.69	0.0725	606.2	10.911	21.86	13.18	1.53
	42.45	28.64	69.58	0.00	0.0611	10.51	462.4	379.00	0.0724	598.4	10.771	21.58	12.98	1.53
	43.46	28.66	69.60	0.00	0.0610	10.51	462.6	379.02	0.0741	613.9	11.050	22.13	13.38	1.53
	44.54	28.66	69.58	-0.00	0.0610	10.49	461.5	378.26	0.0732	613.0	11.034	22.11	13.35	1.53
	45.47	28.62	69.58	-0.00	0.0609	10.49	461.7	378.40	0.0734	612.3	11.022	22.08	13.33	1.53
	46.47	28.66	69.63	-0.00	0.0609	10.49	461.4	377.87	0.0736	617.5	11.116	22.25	13.47	1.53
	47.49	28.66	69.58	-0.00	0.0609	10.49	461.4	378.21	0.0738	613.3	11.040	22.12	13.36	1.53
	48.48	28.66	69.58	-0.00	0.0607	10.44	459.3	376.43	0.0745	626.1	11.269	22.58	13.68	1.53
	49.47	28.66	69.63	-0.00	0.0606	10.43	458.7	375.71	0.0745	626.8	11.283	22.59	13.70	1.53
	50.48	28.66	69.60	-0.00	0.0605	10.41	457.9	375.21	0.0753	633.2	11.397	22.83	13.85	1.53
	51.47	28.66	69.58	0.00	0.0607	10.44	459.5	376.59	0.0747	625.9	11.267	22.57	13.67	1.53
	52.54	28.69	69.60	0.00	0.0606	10.42	458.3	375.50	0.0738	621.1	11.180	22.39	13.56	1.53
	53.48	28.66	69.58	-0.00	0.0607	10.42	458.3	375.60	0.0745	628.8	11.318	22.68	13.74	1.53
	54.54	28.64	69.58	0.00	0.0606	10.42	458.5	375.77	0.0748	628.5	11.314	22.67	13.74	1.53
	55.46	28.68	69.58	0.00	0.0606	10.42	458.7	375.99	0.0750	633.0	11.393	22.83	13.85	1.53
	56.47	28.68	69.60	0.00	0.0606	10.41	457.9	375.16	0.0754	637.8	11.481	23.00	13.96	1.53
	57.45	28.68	69.58	0.00	0.0605	10.37	456.2	373.98	0.0765	650.6	11.712	23.47	14.27	1.53
	58.47	28.68	69.58	-0.00	0.0604	10.37	456.2	373.94	0.0768	655.3	11.795	23.63	14.38	1.53
	59.47	28.70	69.60	-0.00	0.0605	10.40	457.5	374.95	0.0763	646.6	11.638	23.31	14.18	1.53
	60.45	28.68	69.61	0.00	0.0606	10.41	458.2	375.41	0.0764	651.9	11.734	23.50	14.30	1.53
	61.46	28.68	69.55	0.00	0.0605	10.38	456.8	374.55	0.0763	656.9	11.824	23.70	14.42	1.53
	62.45	28.68	69.60	-0.00	0.0604	10.37	456.3	373.91	0.0764	650.3	11.706	23.45	14.26	1.53
	63.48	28.66	69.58	0.00	0.0600	10.31	453.6	371.76	0.0782	668.9	12.041	24.12	14.70	1.53
	64.46	28.68	69.61	0.00	0.0604	10.35	455.4	373.12	0.0771	662.2	11.919	23.87	14.54	1.53
	65.47	28.70	69.58	0.00	0.0604	10.38	456.7	374.35	0.0773	665.6	11.981	24.01	14.62	1.53
	66.47	28.69	69.58	0.00	0.0604	10.37	456.4	374.16	0.0778	676.4	12.175	24.40	14.87	1.54
	67.47	28.70	69.60	0.00	0.0604	10.37	456.1	373.80	0.0778	667.5	12.016	24.07	14.67	1.53
	68.47	28.70	69.58	0.00	0.0603	10.35	455.6	373.44	0.0779	672.1	12.098	24.24	14.78	1.53
	69.45	28.68	69.58	0.00	0.0603	10.36	455.7	373.49	0.0782	673.8	12.129	24.30	14.81	1.53
	70.47	28.70	69.58	0.00	0.0602	10.34	454.9	372.89	0.0786	682.5	12.286	24.62	15.01	1.53
	71.46	28.73	69.58	0.00	0.0604	10.36	455.9	373.77	0.0784	674.7	12.145	24.34	14.84	1.54
	72.48	28.70	69.58	-0.00	0.0604	10.37	456.1	373.89	0.0786	683.3	12.300	24.65	15.03	1.54
	73.46	28.72	69.58	0.00	0.0604	10.37	456.1	373.88	0.0789	679.5	12.232	24.51	14.95	1.53
	74.46	28.70	69.60	0.00	0.0602	10.31	453.8	371.90	0.0792	687.0	12.366	24.77	15.11	1.53
	75.46	28.69	69.58	0.00	0.0604	10.37	456.1	373.89	0.0789	683.5	12.303	24.65	15.04	1.54
	76.47	28.69	69.58	-0.00	0.0604	10.38	456.7	374.41	0.0785	678.6	12.215	24.48	14.92	1.54
	77.45	28.70	69.58	0.00	0.0604	10.38	456.6	374.27	0.0782	675.5	12.158	24.36	14.85	1.54
	78.48	28.69	69.58	0.00	0.0604	10.35	455.6	373.47	0.0791	688.8	12.398	24.84	15.15	1.54
	79.48	28.69	69.58	-0.00	0.0604	10.37	456.4	374.11	0.0788	683.2	12.298	24.64	15.03	1.54
	80.47	28.68	69.58	0.00	0.0604	10.35	455.5	373.36	0.0789	682.4	12.284	24.61	15.01	1.53
	81.48	28.72	69.58	-0.00	0.0605	10.38	456.9	374.55	0.0787	679.5	12.230	24.51	14.94	1.54
	82.46	28.72	69.58	0.00	0.0605	10.42	458.5	375.88	0.0787	681.8	12.272	24.59	15.00	1.54
	83.48	28.72	69.58	0.00	0.0605	10.39	457.3	374.88	0.0787	683.9	12.311	24.67	15.05	1.54
	84.47	28.72	69.60	-0.00	0.0603	10.36	455.9	373.59	0.0792	689.1	12.404	24.85	15.16	1.54
	85.47	28.74	69.58	-0.00	0.0603	10.34	455.2	373.16	0.0792	687.1	12.368	24.79	15.12	1.54
	86.47	28.71	69.60	0.00	0.0603	10.34	454.9	372.80	0.0794	684.5	12.322	24.68	15.06	1.54
	87.47	28.75	69.58	-0.00	0.0602	10.35	455.2	373.24	0.0787	681.9	12.274	24.60	15.00	1.54
	88.47	28.72	69.58	-0.00	0.0603	10.34	455.0	372.99	0.0788	682.0	12.276	24.60	15.00	1.54
	89.45	28.76	69.58	0.00	0.0602	10.33	454.6	372.72	0.0788	680.7	12.253	24.56	14.98	1.54
	90.48	28.72	69.58	-0.00	0.0605	10.38	456.8	374.47	0.0796	688.4	12.390	24.83	15.15	1.54
	91.46	28.72	69.58	0.00	0.0604	10.38	456.6	374.28	0.0794	690.9	12.436	24.92	15.20	1.54
	92.56	28.74	69.60	-0.00	0.0604	10.37	456.2	373.87	0.0800	699.0	12.582	25.21	15.39	1.54
	93.46	28.74	69.55	0.00	0.0604	10.34	454.9	373.12	0.0797	689.3	12.408	24.88	15.17	1.54
	94.47	28.73	69.60	0.00	0.0603	10.37	456.4	374.06	0.0795	693.1	12.476	24.99	15.25	1.54
	95.47	28.73	69.60	0.00	0.0604	10.36	455.9	373.67	0.0793	688.9	12.400	24.84	15.16	1.54
	96.45	28.76	69.58	0.00	0.0603	10.35	455.2	373.23	0.0793	690.0	12.421	24.89	15.19	1.54
	97.47	28.76	69.60	-0.00	0.0604	10.38	456.7	374.35	0.0796	693.0	12.475	24.99	15.25	1.54
	98.45	28.75	69.60	0.00	0.0604	10.37	456.1	373.81	0.0799	696.7	12.541	25.13	15.34	1.54
	99.48	28.76	69.52	-0.00	0.0603	10.35	455.2	373.49	0.0797	695.1	12.512	25.10	15.30	1.54
	100.46	28.78	69.58	-0.00	0.0603	10.33	454.4	372.60	0.0800	694.5	12.501	25.06	15.29	1.54
	101.46	28.73	69.58	0.00	0.0602	10.32	454.0	372.16	0.0802	701.4	12.625	25.30	15.44	1.54
	102.46	28.73	69.58	0.00	0.0602	10.31	453.6	371.89	0.0803	701.9	12.635	25.32	15.45	1.54
	103.47	28.73	69.58	-0.00	0.0602	10.32	454.1	372.29	0.0804	700.6	12.610	25.27	15.42	1.54
	104.46	28.74	69.58	-0.00	0.0602	10.33	454.5	372.62	0.0802	700.7	12.612	25.28	15.42	1.54
	105.47	28.74	69.60	-0.00	0.0601	10.32	454.0	372.08	0.0804	708.3	12.749	25.54	15.59	1.54
	106.47	28.78	69.58	-0.00	0.0601	10.30	453.2	371.57	0.0809	709.1	12.764	25.58	15.61	1.54
	107.48	28.76	69.55	-0.00	0.0601	10.28	452.5	371.14	0.0817	719.6	12.953	25.97	15.84	1.54
	108.47	28.76	69.55	0.00	0.0601	10.31	453.6	372.03	0.0815	715.8	12.884	25.83	15.76	1.54
	109.47	28.78	69.55	0.00	0.0601	10.31	453.6	372.10	0.0813	716.8	12.903	25.87	15.78	1.54
	110.46	28.78	69.58	0.00	0.0601	10.28	452.5	371.01	0.0815	716.7	12.900	25.86	15.78	1.54
	111.48	28.77	69.61	-0.00	0.0601	10.29	452.6	370.97	0.0817	718.7	12.936	25.92	15.82	1.54
	112.46	28.78	69.58	0.00	0.0599	10.26	451.6	370.26	0.0819	720.5	12.968	25.99	15.86	1.54
	113.46	28.80	69.58	0.00	0.0600	10.28	452.3	370.89	0.0818	722.3	13.002	26.06	15.90	1.54
	114.47	28.78	69.58	-0.00	0.0600	10.28	452.4	370.96	0.0819	723.6	13.024	26.10	15.93	1.54
	115.46	28.78	69.58	0.00	0.0598	10.26	451.6	370.30	0.0817	720.7	12.972	26.00	15.87	1.54
	116.49	28.78	69.58	-0.00	0.0600	10.27	452.0	370.59	0.0819	723.2	13.018	26.09	15.92	1.54
	117.53	28.76	69.58	0.00	0.0601	10.29	452.8	371.22	0.0819	723.4	13.021	26.10	15.92	1.54
	118.47	28.78	69.58	0.00	0.0600	10.26	451.5	370.21	0.0812	713.1	12.836	25.73	15.70	1.54
	119.47	28.78	69.58	0.00	0.0600	10.28	452.4	370.92	0.0818	718.0	12.923	25.90	15.81	1.54
	120.45	28.77	69.58	0.00	0.0599	10.26	451.5	370.21	0.0819	725.8	13.065	26.19	15.98	1.54
