Jul 27 2015 at 9:24:24
Frequency: 1.00Hz.
CO2
Zero:  Value:0.95  Date:18 Mar 2005	 at 07:22:33	
Span:  Value:1.00  Date:18 Mar 2005	 at 07:25:09	
H2O
Zero:  Value:0.71  Date:18 Mar 2005	 at 07:52:31	
Span:  Value:0.99  Date:18 Mar 2005	 at 11:44:01	
	Relative Time	Temperature	Pressure	Aux Input	CO2 Absorptance	CO2 mmol/m3	CO2 mg/m3	CO2 umol/mol	H2O Absorptance	H2O mmol/m3	H2O g/m3	H2O mmol/mol	H2O(°C)	Cooler Voltage
	0.28	20.25	69.66	-0.00	0.0613	10.56	464.8	369.95	0.0763	652.3	11.741	22.84	13.87	1.53
	1.29	20.25	69.63	-0.00	0.0615	10.62	467.3	372.09	0.0753	637.3	11.471	22.33	13.52	1.53
	2.28	20.25	69.63	0.00	0.0614	10.59	466.1	371.15	0.0753	636.5	11.457	22.30	13.50	1.53
	3.29	20.25	69.66	-0.00	0.0605	10.40	457.6	364.21	0.0773	657.1	11.827	23.01	13.99	1.53
	4.26	20.25	69.66	0.00	0.0604	10.35	455.2	362.31	0.0790	680.6	12.251	23.84	14.53	1.53
	5.29	20.25	69.66	-0.00	0.0610	10.44	459.4	365.67	0.0779	677.1	12.188	23.71	14.45	1.53
	6.26	20.25	69.66	0.00	0.0610	10.51	462.2	367.88	0.0776	668.0	12.023	23.39	14.24	1.53
	7.27	20.25	69.66	0.00	0.0607	10.44	459.2	365.50	0.0778	670.5	12.069	23.48	14.30	1.53
	8.28	20.28	69.66	-0.00	0.0607	10.50	461.8	367.59	0.0778	674.6	12.142	23.63	14.39	1.53
	9.28	20.25	69.63	0.00	0.0608	10.46	460.2	366.37	0.0778	668.5	12.033	23.42	14.25	1.53
	10.27	20.27	69.63	0.00	0.0608	10.46	460.2	366.44	0.0777	667.9	12.023	23.40	14.24	1.53
	11.28	20.25	69.66	-0.00	0.0609	10.46	460.3	366.35	0.0777	666.8	12.002	23.35	14.21	1.52
	12.28	20.27	69.66	0.00	0.0610	10.49	461.6	367.38	0.0780	670.9	12.076	23.50	14.31	1.53
	13.29	20.23	69.63	-0.00	0.0611	10.51	462.5	368.24	0.0776	667.1	12.008	23.37	14.22	1.53
	14.29	20.25	69.63	-0.00	0.0610	10.52	462.7	368.41	0.0774	664.0	11.951	23.26	14.15	1.53
	15.27	20.27	69.66	0.00	0.0606	10.42	458.6	365.05	0.0775	665.1	11.972	23.29	14.17	1.53
	16.35	20.30	69.66	0.00	0.0609	10.46	460.1	366.25	0.0774	663.0	11.934	23.22	14.13	1.53
	17.27	20.28	69.63	0.00	0.0611	10.50	462.1	367.96	0.0766	656.4	11.816	23.00	13.97	1.53
	18.28	20.28	69.63	-0.00	0.0613	10.57	465.0	370.31	0.0759	644.2	11.596	22.57	13.68	1.53
	19.28	20.28	69.68	0.00	0.0613	10.57	464.9	369.93	0.0762	647.4	11.653	22.67	13.76	1.53
	20.26	20.28	69.66	0.00	0.0612	10.55	464.1	369.38	0.0768	655.4	11.798	22.96	13.95	1.53
	21.28	20.28	69.61	0.00	0.0610	10.51	462.2	368.19	0.0771	659.4	11.869	23.11	14.04	1.53
	22.29	20.30	69.66	-0.00	0.0608	10.47	460.8	366.78	0.0773	661.5	11.908	23.17	14.09	1.53
	23.35	20.30	69.66	-0.00	0.0608	10.45	459.6	365.89	0.0773	662.6	11.926	23.21	14.12	1.53
	24.27	20.30	69.63	-0.00	0.0607	10.44	459.4	365.83	0.0774	663.6	11.946	23.25	14.14	1.53
	25.27	20.30	69.66	-0.00	0.0608	10.45	459.7	365.95	0.0775	665.4	11.977	23.30	14.18	1.53
	26.29	20.30	69.63	-0.00	0.0608	10.45	460.0	366.28	0.0776	666.4	11.994	23.35	14.20	1.53
	27.28	20.30	69.66	-0.00	0.0609	10.47	460.6	366.68	0.0776	665.5	11.979	23.31	14.19	1.53
	28.27	20.32	69.63	0.00	0.0610	10.49	461.8	367.72	0.0776	665.7	11.983	23.33	14.19	1.53
	29.28	20.33	69.61	0.00	0.0611	10.52	462.7	368.66	0.0774	664.6	11.964	23.30	14.17	1.53
	30.28	20.32	69.63	-0.00	0.0611	10.52	462.9	368.67	0.0771	661.0	11.898	23.16	14.08	1.53
	31.28	20.32	69.63	-0.00	0.0611	10.51	462.5	368.29	0.0770	658.1	11.845	23.06	14.01	1.53
	32.28	20.31	69.63	0.00	0.0610	10.51	462.4	368.23	0.0769	657.0	11.826	23.02	13.99	1.53
	33.27	20.30	69.63	0.00	0.0610	10.51	462.4	368.22	0.0768	656.9	11.824	23.02	13.98	1.53
	34.29	20.32	69.66	-0.00	0.0611	10.51	462.5	368.18	0.0769	656.8	11.823	23.01	13.98	1.53
	35.27	20.32	69.66	-0.00	0.0611	10.51	462.5	368.22	0.0768	656.0	11.807	22.98	13.96	1.53
	36.29	20.32	69.63	-0.00	0.0611	10.52	462.8	368.56	0.0767	655.3	11.796	22.96	13.95	1.53
	37.27	20.31	69.68	-0.00	0.0611	10.52	462.7	368.21	0.0767	654.7	11.785	22.92	13.93	1.53
	38.27	20.30	69.63	0.00	0.0611	10.51	462.6	368.38	0.0766	653.4	11.760	22.89	13.90	1.53
	39.28	20.30	69.63	-0.00	0.0611	10.51	462.5	368.27	0.0765	652.3	11.742	22.86	13.88	1.53
	40.28	20.33	69.68	0.00	0.0611	10.52	462.7	368.21	0.0764	651.5	11.727	22.81	13.86	1.53
	41.28	20.33	69.63	0.00	0.0611	10.51	462.6	368.47	0.0762	649.6	11.693	22.76	13.81	1.53
	42.28	20.33	69.63	0.00	0.0611	10.52	462.7	368.52	0.0760	646.7	11.640	22.66	13.74	1.53
	43.29	20.35	69.63	-0.00	0.0611	10.52	463.0	368.76	0.0758	644.0	11.592	22.57	13.68	1.53
	44.27	20.33	69.63	0.00	0.0611	10.53	463.2	368.89	0.0757	641.8	11.553	22.49	13.63	1.53
	45.27	20.35	69.63	0.00	0.0612	10.53	463.4	369.09	0.0756	640.8	11.535	22.46	13.61	1.53
	46.27	20.35	69.63	0.00	0.0611	10.53	463.3	368.96	0.0754	639.3	11.507	22.40	13.57	1.54
	47.27	20.33	69.63	0.00	0.0611	10.52	463.1	368.79	0.0753	637.6	11.477	22.34	13.53	1.53
	48.28	20.35	69.66	-0.00	0.0611	10.53	463.2	368.82	0.0753	636.8	11.462	22.31	13.51	1.53
	49.28	20.35	69.63	-0.00	0.0612	10.54	463.7	369.35	0.0752	635.5	11.439	22.27	13.48	1.53
	50.28	20.35	69.66	-0.00	0.0612	10.54	464.0	369.39	0.0751	633.8	11.408	22.20	13.44	1.53
	51.26	20.35	69.66	0.00	0.0612	10.55	464.1	369.52	0.0750	633.3	11.399	22.18	13.42	1.53
	52.35	20.35	69.63	-0.00	0.0613	10.56	464.4	369.91	0.0751	634.5	11.421	22.24	13.45	1.54
	53.27	20.35	69.66	-0.00	0.0613	10.56	464.5	369.82	0.0750	633.7	11.407	22.20	13.43	1.54
	54.29	20.35	69.63	0.00	0.0612	10.55	464.1	369.64	0.0750	633.3	11.400	22.20	13.43	1.53
	55.27	20.37	69.60	0.00	0.0612	10.55	464.2	369.85	0.0750	633.0	11.393	22.19	13.42	1.53
	56.28	20.35	69.66	0.00	0.0613	10.56	464.5	369.80	0.0749	631.9	11.375	22.14	13.39	1.53
	57.28	20.37	69.61	-0.00	0.0613	10.56	464.7	370.29	0.0750	632.1	11.378	22.16	13.40	1.53
	58.28	20.37	69.58	0.00	0.0613	10.56	464.7	370.42	0.0749	632.8	11.391	22.19	13.41	1.54
	59.27	20.37	69.63	0.00	0.0613	10.56	464.8	370.26	0.0750	633.9	11.410	22.22	13.44	1.54
	60.28	20.35	69.63	0.00	0.0613	10.55	464.4	369.90	0.0750	633.7	11.406	22.21	13.43	1.54
	61.29	20.37	69.63	-0.00	0.0613	10.55	464.2	369.74	0.0749	632.4	11.383	22.16	13.40	1.54
	62.27	20.37	69.63	0.00	0.0612	10.55	464.1	369.68	0.0750	633.1	11.396	22.19	13.42	1.54
	63.27	20.37	69.63	0.00	0.0612	10.55	464.0	369.59	0.0751	633.2	11.397	22.19	13.42	1.54
	64.27	20.38	69.63	-0.00	0.0612	10.55	464.0	369.61	0.0750	633.3	11.399	22.20	13.43	1.54
	65.29	20.38	69.68	-0.00	0.0612	10.55	464.2	369.54	0.0750	633.8	11.408	22.20	13.44	1.54
	66.35	20.38	69.63	0.00	0.0613	10.56	464.4	369.95	0.0750	633.1	11.396	22.19	13.42	1.54
	67.27	20.38	69.63	-0.00	0.0613	10.55	464.4	369.92	0.0749	632.1	11.378	22.15	13.40	1.54
	68.27	20.40	69.63	0.00	0.0613	10.56	464.7	370.18	0.0748	630.4	11.347	22.10	13.36	1.54
	69.26	20.40	69.63	0.00	0.0613	10.56	464.8	370.28	0.0747	629.9	11.339	22.08	13.35	1.54
	70.28	20.40	69.63	0.00	0.0613	10.57	464.9	370.34	0.0747	629.7	11.335	22.07	13.34	1.54
	71.28	20.40	69.63	-0.00	0.0613	10.57	465.1	370.52	0.0747	629.7	11.334	22.07	13.34	1.54
	72.26	20.38	69.63	0.00	0.0613	10.57	465.0	370.41	0.0748	630.0	11.340	22.08	13.35	1.54
	73.29	20.40	69.63	-0.00	0.0613	10.56	464.6	370.14	0.0747	629.1	11.325	22.05	13.33	1.54
	74.29	20.40	69.65	-0.00	0.0613	10.56	464.6	370.02	0.0748	630.1	11.342	22.08	13.35	1.54
	75.30	20.40	69.63	-0.00	0.0613	10.56	464.7	370.21	0.0748	630.1	11.341	22.08	13.35	1.54
	76.27	20.40	69.63	0.00	0.0613	10.56	464.8	370.25	0.0749	632.1	11.378	22.16	13.40	1.54
	77.28	20.40	69.63	0.00	0.0613	10.56	464.9	370.29	0.0748	631.7	11.371	22.14	13.39	1.54
	78.27	20.40	69.61	0.00	0.0613	10.57	464.9	370.49	0.0749	630.8	11.354	22.12	13.37	1.54
	79.28	20.42	69.66	0.00	0.0613	10.57	464.9	370.24	0.0748	630.7	11.352	22.10	13.36	1.54
	80.26	20.40	69.61	0.00	0.0613	10.57	465.1	370.63	0.0748	629.7	11.335	22.08	13.34	1.54
	81.35	20.40	69.63	0.00	0.0613	10.57	465.1	370.45	0.0748	630.9	11.355	22.11	13.37	1.54
	82.26	20.42	69.63	0.00	0.0613	10.57	465.1	370.53	0.0748	631.0	11.358	22.12	13.37	1.54
	83.27	20.42	69.63	0.00	0.0613	10.56	464.7	370.22	0.0749	632.2	11.380	22.16	13.40	1.54
	84.26	20.40	69.63	0.00	0.0613	10.57	464.9	370.32	0.0750	633.3	11.399	22.20	13.43	1.54
	85.27	20.42	69.63	0.00	0.0613	10.56	464.7	370.20	0.0751	634.4	11.420	22.24	13.46	1.54
	86.28	20.42	69.63	-0.00	0.0613	10.57	465.0	370.45	0.0753	635.6	11.440	22.28	13.48	1.54
	87.30	20.43	69.66	-0.00	0.0614	10.58	465.4	370.65	0.0752	636.9	11.464	22.32	13.52	1.54
	88.28	20.43	69.63	-0.00	0.0614	10.58	465.7	370.98	0.0753	636.4	11.456	22.31	13.50	1.54
	89.28	20.42	69.63	0.00	0.0614	10.59	465.8	371.10	0.0753	636.3	11.454	22.31	13.50	1.54
	90.28	20.42	69.63	-0.00	0.0614	10.58	465.7	371.01	0.0752	635.9	11.447	22.29	13.49	1.54
	91.28	20.43	69.63	0.00	0.0614	10.58	465.7	371.02	0.0752	635.5	11.439	22.28	13.48	1.54
	92.26	20.43	69.66	0.00	0.0614	10.59	465.8	370.95	0.0751	634.6	11.423	22.24	13.46	1.54
	93.29	20.43	69.63	0.00	0.0614	10.59	466.0	371.29	0.0751	634.9	11.428	22.26	13.47	1.54
	94.27	20.43	69.66	0.00	0.0614	10.60	466.2	371.28	0.0752	635.7	11.442	22.28	13.49	1.54
	95.28	20.43	69.63	0.00	0.0615	10.60	466.5	371.62	0.0752	635.8	11.445	22.29	13.49	1.54
	96.27	20.42	69.63	0.00	0.0615	10.61	466.9	371.96	0.0753	636.4	11.456	22.31	13.50	1.54
	97.28	20.43	69.63	-0.00	0.0615	10.61	466.9	371.96	0.0753	636.6	11.458	22.32	13.51	1.54
	98.27	20.45	69.63	0.00	0.0615	10.61	466.8	371.87	0.0753	636.2	11.451	22.30	13.50	1.54
	99.28	20.43	69.63	0.00	0.0615	10.60	466.5	371.68	0.0753	636.6	11.459	22.32	13.51	1.54
	100.28	20.45	69.66	-0.00	0.0614	10.60	466.4	371.48	0.0753	636.8	11.462	22.32	13.51	1.54
	101.28	20.45	69.63	-0.00	0.0614	10.60	466.3	371.52	0.0753	636.9	11.464	22.33	13.52	1.54
	102.27	20.45	69.66	0.00	0.0614	10.60	466.2	371.33	0.0753	637.1	11.468	22.33	13.52	1.54
	103.27	20.45	69.63	0.00	0.0615	10.60	466.2	371.45	0.0753	637.0	11.466	22.33	13.52	1.54
	104.27	20.43	69.61	-0.00	0.0615	10.60	466.4	371.73	0.0753	636.9	11.464	22.33	13.52	1.54
	105.28	20.47	69.63	-0.00	0.0615	10.60	466.5	371.69	0.0753	637.1	11.468	22.34	13.52	1.55
	106.27	20.47	69.63	0.00	0.0615	10.61	466.8	371.93	0.0753	637.3	11.471	22.34	13.53	1.54
	107.27	20.47	69.58	0.00	0.0615	10.61	466.8	372.22	0.0754	637.4	11.474	22.36	13.53	1.54
	108.28	20.47	69.63	-0.00	0.0615	10.61	466.9	372.00	0.0754	637.7	11.479	22.36	13.54	1.54
	109.26	20.47	69.63	0.00	0.0615	10.61	467.0	372.09	0.0753	637.4	11.473	22.35	13.53	1.55
	110.26	20.45	69.63	0.00	0.0615	10.61	466.9	372.01	0.0753	637.6	11.477	22.35	13.53	1.55
	111.28	20.45	69.66	0.00	0.0615	10.61	467.0	371.96	0.0754	638.7	11.497	22.38	13.56	1.55
	112.29	20.47	69.66	-0.00	0.0615	10.62	467.2	372.09	0.0754	638.5	11.492	22.38	13.55	1.55
	113.27	20.49	69.63	-0.00	0.0616	10.62	467.3	372.33	0.0755	639.5	11.512	22.42	13.58	1.55
	114.29	20.48	69.63	0.00	0.0616	10.63	467.6	372.59	0.0756	639.8	11.517	22.43	13.59	1.55
	115.27	20.48	69.63	0.00	0.0616	10.63	467.6	372.59	0.0755	639.4	11.509	22.42	13.58	1.55
	116.28	20.48	69.63	0.00	0.0616	10.63	467.8	372.76	0.0755	640.4	11.527	22.45	13.60	1.55
	117.28	20.47	69.63	-0.00	0.0616	10.64	468.0	372.89	0.0756	641.1	11.540	22.48	13.62	1.55
	118.28	20.48	69.63	0.00	0.0616	10.64	468.0	372.93	0.0756	641.4	11.545	22.49	13.63	1.55
	119.28	20.47	69.63	0.00	0.0616	10.64	468.2	373.05	0.0757	641.3	11.544	22.48	13.62	1.55
	120.36	20.48	69.66	-0.00	0.0616	10.64	468.3	373.00	0.0756	641.9	11.554	22.50	13.64	1.55
	121.28	20.47	69.66	0.00	0.0616	10.63	467.7	372.53	0.0755	639.2	11.506	22.40	13.57	1.55
