Jul 27 2015 at 10:13:47
Frequency: 1.00Hz.
CO2
Zero:  Value:0.95  Date:18 Mar 2005	 at 07:22:33	
Span:  Value:1.00  Date:18 Mar 2005	 at 07:25:09	
H2O
Zero:  Value:0.71  Date:18 Mar 2005	 at 07:52:31	
Span:  Value:0.99  Date:18 Mar 2005	 at 11:44:01	
	Relative Time	Temperature	Pressure	Aux Input	CO2 Absorptance	CO2 mmol/m3	CO2 mg/m3	CO2 umol/mol	H2O Absorptance	H2O mmol/m3	H2O g/m3	H2O mmol/mol	H2O(°C)	Cooler Voltage
	0.81	26.12	69.60	-0.00	0.0630	10.94	481.5	391.18	0.0685	557.2	10.029	19.92	11.77	1.57
	1.81	26.10	69.58	-0.00	0.0627	10.88	478.7	389.03	0.0682	556.1	10.009	19.88	11.74	1.57
	2.82	26.10	69.60	-0.00	0.0626	10.86	477.6	388.04	0.0677	547.6	9.856	19.57	11.50	1.57
	3.88	26.08	69.58	0.00	0.0628	10.89	479.2	389.45	0.0684	550.8	9.914	19.69	11.59	1.57
	4.80	26.09	69.58	0.00	0.0628	10.90	479.5	389.65	0.0680	548.6	9.875	19.62	11.53	1.57
	5.82	26.12	69.58	0.00	0.0628	10.90	479.7	389.88	0.0678	546.6	9.839	19.55	11.48	1.57
	6.80	26.10	69.60	0.00	0.0627	10.87	478.4	388.62	0.0682	550.2	9.903	19.67	11.58	1.57
	7.82	26.10	69.58	0.00	0.0624	10.83	476.5	387.23	0.0677	545.2	9.813	19.49	11.44	1.57
	8.81	26.10	69.58	-0.00	0.0625	10.84	477.1	387.74	0.0679	548.9	9.880	19.63	11.54	1.57
	9.81	26.10	69.61	0.00	0.0626	10.86	478.0	388.34	0.0672	539.8	9.717	19.30	11.29	1.57
	10.79	26.12	69.60	0.00	0.0626	10.84	477.2	387.68	0.0671	539.7	9.714	19.29	11.29	1.57
	11.82	26.14	69.60	-0.00	0.0626	10.84	476.9	387.50	0.0675	542.1	9.758	19.38	11.36	1.57
	12.81	26.14	69.63	-0.00	0.0625	10.83	476.5	386.96	0.0672	538.6	9.695	19.25	11.26	1.57
	13.82	26.12	69.58	-0.00	0.0624	10.82	475.9	386.77	0.0674	538.7	9.696	19.26	11.26	1.57
	14.88	26.16	69.60	0.00	0.0624	10.82	475.9	386.69	0.0674	540.8	9.735	19.34	11.32	1.57
	15.82	26.13	69.60	-0.00	0.0624	10.81	475.7	386.52	0.0674	540.4	9.728	19.32	11.31	1.57
	16.82	26.14	69.58	0.00	0.0624	10.80	475.3	386.34	0.0674	540.4	9.727	19.33	11.31	1.57
	17.80	26.13	69.58	0.00	0.0622	10.78	474.3	385.48	0.0675	544.9	9.808	19.49	11.43	1.57
	18.81	26.13	69.58	0.00	0.0622	10.78	474.1	385.35	0.0676	543.2	9.778	19.43	11.39	1.57
	19.81	26.13	69.58	-0.00	0.0622	10.77	473.9	385.14	0.0677	546.3	9.834	19.54	11.47	1.57
	20.80	26.15	69.58	0.00	0.0621	10.77	473.8	385.11	0.0680	542.8	9.770	19.41	11.37	1.57
	21.79	26.16	69.58	0.00	0.0622	10.77	473.9	385.19	0.0680	548.9	9.881	19.63	11.55	1.57
	22.81	26.14	69.58	0.00	0.0622	10.76	473.6	384.96	0.0681	549.3	9.887	19.64	11.55	1.57
	23.80	26.17	69.58	0.00	0.0622	10.76	473.2	384.70	0.0684	553.3	9.959	19.79	11.67	1.57
	24.80	26.13	69.61	0.00	0.0622	10.77	473.7	384.83	0.0684	553.0	9.955	19.77	11.66	1.57
	25.80	26.14	69.58	-0.00	0.0622	10.76	473.5	384.87	0.0686	553.6	9.966	19.80	11.67	1.57
	26.80	26.16	69.58	0.00	0.0623	10.78	474.3	385.47	0.0684	553.1	9.956	19.78	11.66	1.57
	27.80	26.13	69.58	0.00	0.0623	10.79	474.6	385.73	0.0686	555.1	9.992	19.85	11.71	1.57
	28.80	26.16	69.58	0.00	0.0623	10.79	474.7	385.89	0.0689	557.7	10.039	19.95	11.79	1.57
	29.83	26.12	69.58	-0.00	0.0623	10.79	474.6	385.72	0.0691	560.9	10.097	20.06	11.87	1.57
	30.82	26.14	69.55	-0.00	0.0623	10.79	474.7	385.99	0.0690	558.8	10.058	19.99	11.81	1.57
	31.82	26.13	69.55	-0.00	0.0623	10.78	474.4	385.72	0.0692	562.2	10.120	20.11	11.91	1.57
	32.82	26.11	69.58	0.00	0.0623	10.79	474.9	385.95	0.0691	561.4	10.106	20.08	11.88	1.58
	33.80	26.15	69.58	0.00	0.0624	10.82	476.1	387.00	0.0693	565.7	10.183	20.23	12.00	1.58
	34.80	26.18	69.53	0.00	0.0624	10.82	476.0	387.20	0.0694	564.8	10.166	20.22	11.98	1.57
	35.80	26.14	69.58	0.00	0.0625	10.82	476.3	387.09	0.0695	564.8	10.166	20.20	11.98	1.57
	36.80	26.16	69.58	0.00	0.0625	10.83	476.5	387.29	0.0700	571.5	10.288	20.44	12.16	1.57
	37.81	26.16	69.58	-0.00	0.0625	10.84	476.9	387.61	0.0699	570.2	10.263	20.39	12.12	1.57
	38.89	26.15	69.58	-0.00	0.0625	10.84	476.8	387.56	0.0701	573.1	10.317	20.50	12.20	1.58
	39.80	26.16	69.60	0.00	0.0625	10.82	476.1	386.85	0.0703	574.7	10.345	20.55	12.24	1.57
	40.79	26.16	69.58	0.00	0.0624	10.82	476.3	387.13	0.0703	576.5	10.376	20.62	12.29	1.57
	41.81	26.17	69.58	-0.00	0.0624	10.81	475.6	386.60	0.0712	583.4	10.501	20.87	12.47	1.57
	42.81	26.16	69.58	-0.00	0.0626	10.85	477.3	387.99	0.0706	580.5	10.448	20.76	12.39	1.57
	43.80	26.17	69.58	-0.00	0.0625	10.83	476.4	387.28	0.0708	581.2	10.461	20.79	12.41	1.57
	44.82	26.20	69.58	-0.00	0.0624	10.82	476.1	387.07	0.0709	583.8	10.509	20.88	12.48	1.58
	45.82	26.17	69.57	0.00	0.0624	10.82	476.0	386.92	0.0710	584.3	10.517	20.90	12.49	1.57
	46.82	26.19	69.58	-0.00	0.0624	10.81	475.5	386.52	0.0710	583.2	10.498	20.86	12.47	1.57
	47.81	26.19	69.58	-0.00	0.0623	10.80	475.3	386.36	0.0716	589.9	10.618	21.10	12.64	1.57
	48.80	26.19	69.58	0.00	0.0625	10.82	475.9	386.89	0.0713	587.7	10.578	21.02	12.58	1.57
	49.83	26.21	69.61	0.00	0.0624	10.80	475.4	386.32	0.0716	592.3	10.661	21.18	12.70	1.58
	50.81	26.23	69.58	-0.00	0.0625	10.82	476.3	387.23	0.0717	591.1	10.639	21.15	12.67	1.57
	51.79	26.17	69.60	0.00	0.0624	10.82	475.9	386.71	0.0716	590.9	10.636	21.13	12.66	1.57
	52.81	26.23	69.55	-0.00	0.0624	10.81	475.7	386.93	0.0716	590.8	10.635	21.14	12.67	1.57
	53.80	26.23	69.55	-0.00	0.0625	10.85	477.3	388.21	0.0716	590.7	10.633	21.14	12.66	1.57
	54.82	26.21	69.58	-0.00	0.0624	10.83	476.3	387.26	0.0717	591.3	10.643	21.15	12.68	1.57
	55.82	26.21	69.60	-0.00	0.0625	10.82	476.2	387.01	0.0719	594.8	10.707	21.27	12.77	1.58
	56.89	26.21	69.58	-0.00	0.0624	10.81	475.6	386.68	0.0720	595.6	10.721	21.31	12.79	1.58
	57.80	26.20	69.60	0.00	0.0625	10.82	476.2	386.98	0.0723	599.9	10.799	21.45	12.90	1.58
	58.81	26.22	69.58	0.00	0.0625	10.82	476.1	387.12	0.0723	599.8	10.796	21.46	12.90	1.58
	59.80	26.22	69.58	0.00	0.0625	10.83	476.7	387.57	0.0724	600.4	10.807	21.48	12.91	1.58
	60.82	26.23	69.60	-0.00	0.0625	10.85	477.2	387.83	0.0729	606.1	10.910	21.68	13.06	1.58
	61.87	26.23	69.60	0.00	0.0625	10.84	476.8	387.56	0.0725	603.0	10.854	21.57	12.98	1.58
	62.82	26.21	69.58	-0.00	0.0625	10.83	476.6	387.43	0.0726	601.8	10.832	21.53	12.95	1.58
	63.80	26.23	69.55	-0.00	0.0626	10.84	477.1	388.05	0.0726	603.7	10.866	21.60	12.99	1.58
	64.82	26.23	69.58	-0.00	0.0626	10.84	477.0	387.86	0.0726	602.7	10.848	21.56	12.97	1.58
	65.80	26.21	69.58	-0.00	0.0625	10.83	476.6	387.49	0.0730	607.8	10.940	21.74	13.10	1.58
	66.81	26.23	69.58	-0.00	0.0625	10.84	476.8	387.66	0.0736	614.4	11.060	21.98	13.26	1.58
	67.80	26.22	69.58	0.00	0.0625	10.84	477.0	387.85	0.0732	611.5	11.006	21.87	13.19	1.58
	68.80	26.23	69.58	0.00	0.0625	10.83	476.7	387.55	0.0734	612.4	11.024	21.91	13.21	1.58
	69.81	26.27	69.60	0.00	0.0626	10.85	477.4	388.04	0.0735	615.2	11.073	22.00	13.29	1.58
	70.81	26.23	69.58	0.00	0.0626	10.85	477.4	388.13	0.0736	615.3	11.075	22.01	13.29	1.58
	71.81	26.21	69.58	0.00	0.0626	10.85	477.5	388.23	0.0738	618.3	11.130	22.12	13.36	1.58
	72.81	26.19	69.58	0.00	0.0626	10.85	477.3	388.01	0.0740	620.4	11.167	22.19	13.41	1.58
	73.82	26.18	69.58	-0.00	0.0627	10.88	478.8	389.21	0.0745	626.3	11.273	22.40	13.55	1.58
	74.82	26.21	69.61	0.00	0.0626	10.86	477.9	388.36	0.0742	623.3	11.220	22.29	13.48	1.58
	75.82	26.21	69.58	-0.00	0.0626	10.87	478.2	388.78	0.0741	622.1	11.197	22.25	13.45	1.58
	76.80	26.23	69.58	-0.00	0.0626	10.85	477.3	388.05	0.0743	623.8	11.228	22.32	13.50	1.58
	77.80	26.23	69.58	0.00	0.0625	10.85	477.2	388.00	0.0741	622.3	11.201	22.26	13.46	1.58
	78.81	26.25	69.63	0.00	0.0626	10.86	478.0	388.37	0.0742	624.0	11.232	22.31	13.50	1.58
	79.81	26.25	69.58	-0.00	0.0626	10.84	477.1	387.95	0.0746	626.4	11.276	22.41	13.56	1.58
	80.81	26.24	69.58	-0.00	0.0627	10.87	478.2	388.82	0.0746	629.3	11.328	22.51	13.63	1.58
	81.81	26.25	69.58	-0.00	0.0625	10.84	476.9	387.78	0.0746	627.2	11.289	22.44	13.58	1.58
	82.81	26.29	69.60	0.00	0.0627	10.86	478.0	388.54	0.0748	629.9	11.338	22.53	13.65	1.58
	83.88	26.27	69.58	0.00	0.0626	10.87	478.2	388.87	0.0748	630.6	11.352	22.56	13.67	1.58
	84.80	26.27	69.52	0.00	0.0626	10.87	478.1	389.08	0.0753	636.0	11.448	22.77	13.80	1.58
	85.82	26.27	69.58	0.00	0.0627	10.87	478.2	388.79	0.0752	635.3	11.436	22.73	13.78	1.58
	86.80	26.27	69.58	0.00	0.0627	10.88	478.9	389.38	0.0755	639.4	11.509	22.88	13.88	1.58
	87.81	26.27	69.58	0.00	0.0627	10.88	478.7	389.21	0.0758	643.1	11.576	23.01	13.97	1.58
	88.80	26.28	69.60	0.00	0.0627	10.88	478.8	389.24	0.0759	643.5	11.583	23.02	13.98	1.58
	89.81	26.26	69.58	0.00	0.0627	10.88	478.6	389.19	0.0758	641.7	11.551	22.96	13.93	1.58
	90.81	26.25	69.58	-0.00	0.0626	10.87	478.2	388.84	0.0760	646.9	11.644	23.14	14.06	1.58
	91.81	26.24	69.58	-0.00	0.0626	10.86	477.6	388.36	0.0760	645.9	11.627	23.11	14.03	1.58
	92.81	26.24	69.56	0.00	0.0626	10.86	477.8	388.64	0.0760	644.6	11.602	23.07	14.00	1.58
	93.82	26.28	69.58	0.00	0.0626	10.87	478.1	388.79	0.0763	650.4	11.708	23.27	14.14	1.58
	94.80	26.24	69.58	-0.00	0.0627	10.87	478.3	388.88	0.0760	647.5	11.655	23.17	14.07	1.58
	95.82	26.30	69.58	-0.00	0.0627	10.88	478.6	389.25	0.0761	646.5	11.637	23.13	14.05	1.58
	96.89	26.28	69.60	-0.00	0.0627	10.88	478.6	389.04	0.0760	648.8	11.679	23.21	14.11	1.58
	97.80	26.28	69.55	0.00	0.0627	10.87	478.3	389.12	0.0760	645.9	11.626	23.12	14.04	1.58
	98.81	26.28	69.55	0.00	0.0626	10.88	478.5	389.29	0.0763	649.0	11.682	23.23	14.11	1.58
	99.81	26.27	69.55	-0.00	0.0627	10.87	478.4	389.13	0.0765	650.2	11.704	23.27	14.14	1.58
	100.81	26.27	69.58	0.00	0.0627	10.88	478.7	389.25	0.0768	654.9	11.788	23.43	14.25	1.58
	101.81	26.27	69.58	0.00	0.0627	10.88	478.8	389.34	0.0768	658.6	11.855	23.56	14.33	1.59
	102.80	26.25	69.60	0.00	0.0627	10.89	479.0	389.30	0.0769	658.0	11.844	23.53	14.32	1.59
	103.80	26.24	69.58	0.00	0.0627	10.88	478.9	389.39	0.0776	664.9	11.969	23.79	14.48	1.58
	104.82	26.26	69.58	-0.00	0.0628	10.89	479.0	389.48	0.0770	660.0	11.880	23.61	14.37	1.58
	105.88	26.28	69.60	-0.00	0.0627	10.88	478.9	389.31	0.0772	659.0	11.862	23.57	14.35	1.58
	106.81	26.32	69.55	-0.00	0.0627	10.88	478.8	389.53	0.0766	654.3	11.777	23.42	14.24	1.59
	107.80	26.30	69.60	0.00	0.0627	10.88	478.6	389.03	0.0766	653.1	11.756	23.36	14.21	1.59
	108.80	26.28	69.58	0.00	0.0628	10.89	479.1	389.55	0.0769	657.0	11.826	23.51	14.30	1.59
	109.79	26.32	69.62	0.00	0.0628	10.89	479.4	389.60	0.0771	659.9	11.878	23.60	14.37	1.59
	110.81	26.32	69.55	0.00	0.0629	10.91	480.0	390.51	0.0774	664.2	11.956	23.78	14.47	1.58
	111.81	26.34	69.58	0.00	0.0627	10.91	479.9	390.29	0.0772	665.2	11.973	23.80	14.49	1.58
	112.82	26.34	69.58	-0.00	0.0627	10.88	478.8	389.46	0.0776	665.4	11.976	23.81	14.50	1.59
	113.80	26.34	69.58	0.00	0.0627	10.87	478.4	389.07	0.0773	663.6	11.945	23.75	14.46	1.59
	114.83	26.34	69.60	-0.00	0.0628	10.90	479.8	390.08	0.0775	665.1	11.971	23.79	14.49	1.59
	115.81	26.34	69.58	-0.00	0.0628	10.89	479.1	389.63	0.0773	662.0	11.915	23.69	14.42	1.59
	116.81	26.34	69.58	0.00	0.0628	10.88	478.9	389.49	0.0776	665.5	11.978	23.81	14.50	1.59
	117.80	26.34	69.60	0.00	0.0628	10.90	479.8	390.08	0.0778	669.3	12.047	23.94	14.59	1.59
	118.81	26.33	69.58	0.00	0.0627	10.89	479.0	389.59	0.0776	667.5	12.015	23.89	14.55	1.59
	119.81	26.36	69.53	0.00	0.0627	10.87	478.4	389.37	0.0778	667.7	12.019	23.91	14.55	1.59
