Jul 27 2015 at 12:38:40
Frequency: 1.00Hz.
CO2
Zero:  Value:0.95  Date:18 Mar 2005	 at 07:22:33	
Span:  Value:1.00  Date:18 Mar 2005	 at 07:25:09	
H2O
Zero:  Value:0.71  Date:18 Mar 2005	 at 07:52:31	
Span:  Value:0.99  Date:18 Mar 2005	 at 11:44:01	
	Relative Time	Temperature	Pressure	Aux Input	CO2 Absorptance	CO2 mmol/m3	CO2 mg/m3	CO2 umol/mol	H2O Absorptance	H2O mmol/m3	H2O g/m3	H2O mmol/mol	H2O(°C)	Cooler Voltage
	0.64	27.22	67.88	-0.00	0.0622	10.86	477.9	399.60	0.0576	441.4	7.945	16.24	8.34	1.48
	1.65	27.23	67.88	0.00	0.0622	10.84	477.2	398.96	0.0582	442.1	7.958	16.27	8.37	1.48
	2.65	27.23	67.88	0.00	0.0621	10.83	476.4	398.34	0.0582	439.1	7.903	16.15	8.27	1.48
	3.67	27.24	67.88	-0.00	0.0621	10.82	476.0	397.97	0.0578	439.0	7.902	16.15	8.26	1.48
	4.67	27.24	67.91	-0.00	0.0621	10.82	476.1	397.96	0.0573	433.4	7.801	15.94	8.07	1.48
	5.65	27.26	67.88	0.00	0.0621	10.82	476.0	397.98	0.0572	433.0	7.793	15.93	8.06	1.48
	6.72	27.26	67.86	0.00	0.0620	10.81	475.5	397.79	0.0571	432.1	7.778	15.90	8.03	1.48
	7.66	27.26	67.88	0.00	0.0620	10.81	475.5	397.60	0.0574	433.7	7.807	15.96	8.09	1.48
	8.66	27.23	67.86	0.00	0.0620	10.80	475.2	397.51	0.0575	434.9	7.829	16.01	8.13	1.48
	9.66	27.24	67.91	-0.00	0.0618	10.76	473.5	395.75	0.0585	443.3	7.980	16.30	8.41	1.48
	10.64	27.24	67.88	0.00	0.0618	10.76	473.4	395.82	0.0585	446.0	8.028	16.41	8.50	1.48
	11.65	27.23	67.88	0.00	0.0617	10.72	471.7	394.42	0.0592	455.0	8.189	16.74	8.79	1.48
	12.64	27.22	67.88	0.00	0.0615	10.70	470.7	393.50	0.0605	463.2	8.337	17.04	9.05	1.48
	13.65	27.26	67.89	0.00	0.0615	10.69	470.4	393.29	0.0600	463.9	8.350	17.07	9.08	1.48
	14.65	27.26	67.88	-0.00	0.0613	10.67	469.3	392.46	0.0608	469.0	8.442	17.26	9.24	1.48
	15.63	27.24	67.88	0.00	0.0612	10.62	467.4	390.76	0.0620	483.6	8.705	17.79	9.70	1.48
	16.66	27.24	67.91	0.00	0.0610	10.58	465.5	389.12	0.0628	494.6	8.903	18.19	10.03	1.48
	17.64	27.24	67.88	0.00	0.0609	10.57	465.1	388.87	0.0630	494.0	8.892	18.17	10.02	1.48
	18.67	27.24	67.89	-0.00	0.0610	10.56	464.5	388.32	0.0628	498.8	8.979	18.35	10.16	1.48
	19.66	27.27	67.91	-0.00	0.0610	10.57	465.0	388.73	0.0623	494.3	8.897	18.18	10.02	1.48
	20.64	27.23	67.89	0.00	0.0613	10.65	468.5	391.71	0.0614	477.3	8.592	17.56	9.50	1.48
	21.65	27.24	67.89	0.00	0.0613	10.65	468.4	391.65	0.0612	473.2	8.518	17.41	9.37	1.48
	22.65	27.24	67.89	-0.00	0.0613	10.65	468.5	391.67	0.0616	476.5	8.577	17.53	9.48	1.48
	23.65	27.24	67.86	0.00	0.0613	10.64	468.1	391.50	0.0615	478.3	8.609	17.60	9.53	1.48
	24.66	27.22	67.91	-0.00	0.0613	10.64	468.0	391.15	0.0619	483.8	8.709	17.79	9.70	1.48
	25.66	27.27	67.91	-0.00	0.0613	10.64	468.2	391.37	0.0619	483.3	8.699	17.78	9.69	1.48
	26.66	27.26	67.88	-0.00	0.0606	10.49	461.4	385.83	0.0655	526.2	9.472	19.36	10.96	1.48
	27.64	27.24	67.88	0.00	0.0599	10.29	453.0	378.73	0.0692	576.4	10.375	21.20	12.34	1.48
	28.66	27.24	67.89	-0.00	0.0601	10.36	456.0	381.28	0.0681	554.7	9.985	20.41	11.76	1.48
	29.66	27.25	67.88	0.00	0.0601	10.37	456.4	381.60	0.0675	547.1	9.848	20.13	11.55	1.49
	30.66	27.23	67.88	0.00	0.0602	10.39	457.0	382.13	0.0665	538.2	9.687	19.80	11.30	1.48
	31.65	27.26	67.91	-0.00	0.0601	10.38	456.7	381.76	0.0676	548.8	9.879	20.19	11.60	1.48
	32.64	27.23	67.88	0.00	0.0604	10.40	457.8	382.73	0.0660	541.3	9.744	19.92	11.39	1.48
	33.65	27.26	67.88	0.00	0.0602	10.42	458.3	383.23	0.0663	532.5	9.584	19.59	11.14	1.48
	34.66	27.28	67.89	-0.00	0.0601	10.37	456.3	381.52	0.0672	545.9	9.826	20.09	11.52	1.49
	35.66	27.25	67.88	0.00	0.0597	10.30	453.3	379.04	0.0689	559.5	10.071	20.58	11.89	1.48
	36.66	27.26	67.88	-0.00	0.0591	10.13	445.9	372.86	0.0715	599.0	10.782	22.04	12.93	1.48
	37.66	27.26	67.89	-0.00	0.0593	10.20	448.8	375.29	0.0706	586.2	10.552	21.57	12.60	1.48
	38.66	27.25	67.88	0.00	0.0594	10.20	448.7	375.21	0.0706	587.6	10.577	21.62	12.64	1.49
	39.66	27.27	67.88	-0.00	0.0594	10.24	450.4	376.65	0.0707	586.1	10.549	21.56	12.60	1.49
	40.67	27.26	67.88	-0.00	0.0595	10.24	450.6	376.78	0.0701	581.8	10.473	21.41	12.48	1.49
	41.65	27.29	67.89	0.00	0.0595	10.25	450.8	377.01	0.0703	582.2	10.480	21.42	12.50	1.49
	42.65	27.26	67.88	-0.00	0.0594	10.23	450.0	376.25	0.0710	590.9	10.636	21.74	12.72	1.49
	43.66	27.26	67.88	-0.00	0.0594	10.21	449.1	375.53	0.0705	585.6	10.541	21.55	12.58	1.49
	44.71	27.23	67.88	0.00	0.0596	10.26	451.2	377.28	0.0698	576.4	10.375	21.21	12.34	1.49
	45.65	27.27	67.88	-0.00	0.0589	10.14	446.2	373.14	0.0719	600.3	10.806	22.09	12.96	1.49
	46.65	27.28	67.88	0.00	0.0592	10.18	447.8	374.47	0.0716	597.6	10.757	21.99	12.89	1.49
	47.66	27.25	67.88	-0.00	0.0592	10.17	447.5	374.18	0.0720	603.4	10.861	22.20	13.04	1.49
	48.67	27.27	67.88	0.00	0.0592	10.18	447.7	374.39	0.0725	609.8	10.977	22.44	13.20	1.49
	49.66	27.27	67.88	0.00	0.0591	10.16	446.8	373.65	0.0728	612.2	11.019	22.52	13.26	1.49
	50.64	27.27	67.88	0.00	0.0593	10.19	448.2	374.76	0.0719	605.2	10.893	22.27	13.09	1.49
	51.65	27.29	67.88	0.00	0.0592	10.20	448.8	375.33	0.0719	599.7	10.795	22.07	12.95	1.49
	52.65	27.29	67.88	-0.00	0.0587	10.08	443.7	371.03	0.0743	629.1	11.323	23.15	13.68	1.49
	53.66	27.27	67.88	-0.00	0.0580	9.94	437.2	365.60	0.0769	664.5	11.961	24.45	14.53	1.49
	54.66	27.27	67.88	-0.00	0.0581	9.90	435.8	364.40	0.0753	648.6	11.675	23.86	14.15	1.49
	55.65	27.32	67.91	-0.00	0.0582	9.97	438.9	366.94	0.0751	641.7	11.551	23.61	13.99	1.49
	56.66	27.29	67.86	-0.00	0.0583	9.97	438.6	366.97	0.0756	650.3	11.705	23.94	14.19	1.49
	57.64	27.29	67.88	-0.00	0.0582	9.94	437.4	365.77	0.0768	667.0	12.006	24.54	14.58	1.49
	58.64	27.29	67.88	0.00	0.0585	10.03	441.4	369.15	0.0758	652.9	11.751	24.02	14.25	1.49
	59.66	27.29	67.86	-0.00	0.0583	9.99	439.4	367.61	0.0761	652.4	11.742	24.01	14.24	1.49
	60.64	27.29	67.89	0.00	0.0583	9.98	438.9	367.05	0.0761	659.5	11.872	24.27	14.41	1.49
	61.67	27.34	67.88	-0.00	0.0580	9.93	436.9	365.46	0.0765	660.3	11.885	24.30	14.43	1.49
	62.67	27.29	67.88	-0.00	0.0580	9.92	436.5	365.00	0.0773	668.8	12.038	24.61	14.62	1.49
	63.65	27.31	67.91	-0.00	0.0582	9.96	438.3	366.43	0.0767	663.6	11.945	24.41	14.51	1.49
	64.66	27.31	67.89	-0.00	0.0583	9.98	439.2	367.34	0.0764	659.4	11.869	24.26	14.41	1.49
	65.66	27.31	67.86	-0.00	0.0585	10.01	440.6	368.62	0.0759	652.2	11.740	24.01	14.24	1.49
	66.64	27.31	67.88	0.00	0.0583	9.99	439.7	367.75	0.0770	663.7	11.947	24.42	14.51	1.49
	67.66	27.33	67.89	-0.00	0.0582	9.96	438.3	366.58	0.0774	672.5	12.106	24.75	14.71	1.49
	68.66	27.31	67.86	0.00	0.0584	10.00	439.9	368.04	0.0760	654.6	11.782	24.10	14.29	1.49
	69.66	27.31	67.88	0.00	0.0584	10.00	440.2	368.13	0.0759	653.3	11.759	24.04	14.26	1.49
	70.65	27.31	67.88	-0.00	0.0584	10.00	440.2	368.12	0.0758	652.9	11.752	24.03	14.25	1.49
	71.64	27.31	67.86	0.00	0.0585	10.01	440.3	368.34	0.0759	652.2	11.740	24.01	14.24	1.49
	72.65	27.31	67.86	0.00	0.0584	10.00	440.1	368.24	0.0754	646.0	11.627	23.78	14.09	1.49
	73.66	27.31	67.88	-0.00	0.0585	10.02	440.9	368.73	0.0755	647.3	11.652	23.82	14.12	1.49
	74.72	27.31	67.88	0.00	0.0582	9.97	438.7	366.88	0.0765	659.5	11.871	24.27	14.41	1.49
	75.66	27.33	67.91	-0.00	0.0579	9.92	436.4	364.84	0.0770	666.0	11.988	24.50	14.56	1.49
	76.66	27.33	67.91	-0.00	0.0582	9.95	437.8	366.03	0.0765	661.1	11.900	24.32	14.45	1.49
	77.63	27.33	67.88	0.00	0.0581	9.95	437.7	366.05	0.0771	667.3	12.012	24.56	14.59	1.49
	78.66	27.33	67.84	-0.00	0.0582	9.94	437.5	366.13	0.0769	666.8	12.002	24.55	14.58	1.49
	79.64	27.33	67.88	0.00	0.0582	9.95	437.6	366.01	0.0768	664.4	11.960	24.45	14.53	1.49
	80.65	27.33	67.88	-0.00	0.0582	9.95	438.0	366.35	0.0766	661.2	11.902	24.33	14.45	1.49
	81.65	27.33	67.91	-0.00	0.0583	9.96	438.3	366.49	0.0763	662.5	11.925	24.37	14.48	1.49
	82.63	27.35	67.91	0.00	0.0583	9.98	439.1	367.13	0.0765	660.1	11.882	24.29	14.43	1.49
	83.63	27.33	67.88	0.00	0.0581	9.95	437.7	366.11	0.0780	675.3	12.156	24.85	14.78	1.49
	84.65	27.37	67.88	0.00	0.0578	9.88	434.7	363.60	0.0796	696.1	12.530	25.62	15.25	1.50
	85.66	27.35	67.89	0.00	0.0574	9.81	431.7	361.06	0.0812	715.6	12.880	26.33	15.68	1.49
	86.66	27.35	67.86	-0.00	0.0574	9.77	429.9	359.74	0.0810	721.9	12.994	26.58	15.82	1.49
	87.64	27.34	67.89	0.00	0.0573	9.78	430.3	359.93	0.0813	721.0	12.978	26.53	15.80	1.50
	88.66	27.35	67.88	0.00	0.0573	9.76	429.6	359.32	0.0805	715.3	12.875	26.32	15.67	1.49
	89.64	27.35	67.91	0.00	0.0575	9.80	431.4	360.69	0.0801	707.8	12.741	26.04	15.51	1.49
	90.65	27.35	67.91	0.00	0.0572	9.72	427.6	357.51	0.0810	726.9	13.084	26.74	15.92	1.50
	91.65	27.33	67.88	-0.00	0.0574	9.78	430.4	359.95	0.0805	711.1	12.799	26.17	15.58	1.49
	92.63	27.37	67.89	0.00	0.0574	9.78	430.5	360.07	0.0802	711.2	12.802	26.18	15.59	1.50
	93.65	27.33	67.86	0.00	0.0575	9.80	431.4	360.91	0.0802	710.4	12.788	26.15	15.57	1.50
	94.65	27.35	67.88	-0.00	0.0575	9.81	431.5	360.94	0.0803	709.3	12.767	26.10	15.54	1.49
	95.66	27.36	67.88	-0.00	0.0573	9.76	429.3	359.10	0.0810	720.0	12.959	26.50	15.78	1.50
	96.64	27.37	67.86	-0.00	0.0571	9.76	429.2	359.20	0.0820	730.5	13.148	26.90	16.00	1.50
	97.63	27.38	67.86	0.00	0.0571	9.73	428.2	358.33	0.0815	725.7	13.063	26.72	15.90	1.50
	98.64	27.40	67.88	0.00	0.0571	9.73	428.1	358.17	0.0815	724.7	13.044	26.67	15.88	1.50
	99.64	27.39	67.91	-0.00	0.0570	9.71	427.1	357.15	0.0821	735.5	13.239	27.06	16.11	1.50
	100.64	27.36	67.86	0.00	0.0570	9.70	427.0	357.26	0.0822	737.0	13.267	27.14	16.14	1.50
	101.64	27.37	67.88	0.00	0.0565	9.60	422.4	353.34	0.0836	754.5	13.581	27.77	16.51	1.50
	102.67	27.37	67.89	-0.00	0.0569	9.66	425.1	355.58	0.0826	741.9	13.354	27.30	16.25	1.49
	103.66	27.34	67.88	-0.00	0.0571	9.71	427.2	357.29	0.0820	734.2	13.215	27.02	16.08	1.50
	104.65	27.36	67.88	0.00	0.0572	9.74	428.6	358.52	0.0817	731.7	13.170	26.93	16.03	1.50
	105.66	27.37	67.88	-0.00	0.0569	9.68	425.8	356.15	0.0830	745.0	13.410	27.42	16.31	1.50
	106.66	27.37	67.86	-0.00	0.0568	9.65	424.8	355.47	0.0830	748.5	13.473	27.56	16.39	1.50
	107.66	27.36	67.86	0.00	0.0564	9.56	420.8	352.07	0.0849	775.5	13.959	28.55	16.94	1.50
	108.66	27.37	67.88	-0.00	0.0565	9.57	421.2	352.30	0.0840	768.4	13.831	28.28	16.80	1.50
	109.65	27.39	67.88	-0.00	0.0566	9.60	422.6	353.53	0.0837	757.8	13.641	27.89	16.58	1.50
	110.65	27.39	67.86	-0.00	0.0567	9.63	423.8	354.66	0.0839	760.6	13.690	28.01	16.64	1.50
	111.65	27.39	67.89	0.00	0.0567	9.63	423.9	354.56	0.0839	761.6	13.709	28.03	16.66	1.50
	112.66	27.42	67.91	0.00	0.0566	9.62	423.4	354.09	0.0842	764.2	13.756	28.12	16.72	1.50
	113.65	27.42	67.88	-0.00	0.0567	9.63	423.7	354.48	0.0842	763.5	13.744	28.11	16.70	1.50
	114.63	27.40	67.88	0.00	0.0565	9.60	422.2	353.25	0.0847	768.8	13.838	28.30	16.81	1.50
	115.64	27.40	67.88	0.00	0.0561	9.50	418.1	349.78	0.0859	794.9	14.308	29.26	17.34	1.50
	116.63	27.40	67.88	0.00	0.0562	9.53	419.5	350.97	0.0855	782.6	14.087	28.81	17.09	1.50
	117.64	27.38	67.91	0.00	0.0561	9.51	418.6	350.02	0.0866	795.9	14.327	29.29	17.36	1.50
	118.64	27.38	67.88	-0.00	0.0564	9.56	420.6	351.80	0.0850	780.1	14.042	28.71	17.04	1.50
