Jul 27 2015 at 9:27:55
Frequency: 1.00Hz.
CO2
Zero:  Value:0.95  Date:18 Mar 2005	 at 07:22:33	
Span:  Value:1.00  Date:18 Mar 2005	 at 07:25:09	
H2O
Zero:  Value:0.71  Date:18 Mar 2005	 at 07:52:31	
Span:  Value:0.99  Date:18 Mar 2005	 at 11:44:01	
	Relative Time	Temperature	Pressure	Aux Input	CO2 Absorptance	CO2 mmol/m3	CO2 mg/m3	CO2 umol/mol	H2O Absorptance	H2O mmol/m3	H2O g/m3	H2O mmol/mol	H2O(°C)	Cooler Voltage
	0.50	20.57	69.63	0.00	0.0656	11.56	508.8	405.54	0.0666	531.5	9.567	18.64	10.77	1.55
	1.48	20.60	69.63	0.00	0.0656	11.54	507.7	404.71	0.0664	529.1	9.525	18.56	10.71	1.55
	2.57	20.60	69.63	-0.00	0.0651	11.42	502.5	400.56	0.0667	529.7	9.535	18.58	10.73	1.55
	3.49	20.60	69.63	-0.00	0.0636	11.15	490.8	391.21	0.0685	546.9	9.845	19.18	11.21	1.55
	4.49	20.60	69.63	0.00	0.0638	11.12	489.4	390.11	0.0682	549.4	9.889	19.27	11.27	1.55
	5.52	20.62	69.63	-0.00	0.0642	11.22	493.7	393.58	0.0673	540.1	9.721	18.94	11.02	1.55
	6.50	20.60	69.63	-0.00	0.0643	11.22	493.7	393.59	0.0671	539.3	9.707	18.92	11.00	1.55
	7.52	20.60	69.66	-0.00	0.0644	11.27	495.9	395.15	0.0671	536.9	9.664	18.82	10.93	1.55
	8.50	20.60	69.63	0.00	0.0645	11.27	496.1	395.47	0.0670	535.3	9.635	18.77	10.88	1.55
	9.52	20.60	69.63	-0.00	0.0642	11.23	494.2	393.93	0.0674	539.2	9.706	18.91	10.99	1.55
	10.50	20.62	69.66	0.00	0.0642	11.22	493.7	393.38	0.0674	541.7	9.750	18.99	11.06	1.55
	11.50	20.60	69.63	0.00	0.0642	11.23	494.1	393.87	0.0675	542.0	9.756	19.01	11.07	1.55
	12.50	20.62	69.63	-0.00	0.0642	11.21	493.1	393.08	0.0677	544.0	9.793	19.08	11.13	1.55
	13.49	20.62	69.63	0.00	0.0644	11.26	495.6	395.07	0.0677	542.7	9.769	19.04	11.09	1.55
	14.57	20.62	69.63	0.00	0.0642	11.22	493.6	393.46	0.0683	550.4	9.907	19.31	11.30	1.55
	15.51	20.62	69.66	-0.00	0.0640	11.19	492.3	392.29	0.0689	557.5	10.036	19.55	11.50	1.55
	16.50	20.62	69.63	0.00	0.0639	11.15	490.7	391.22	0.0691	561.4	10.105	19.69	11.60	1.55
	17.49	20.64	69.66	0.00	0.0637	11.09	488.1	389.00	0.0698	569.2	10.246	19.96	11.81	1.55
	18.50	20.64	69.63	-0.00	0.0636	11.07	487.2	388.42	0.0702	573.5	10.323	20.12	11.93	1.55
	19.50	20.64	69.63	-0.00	0.0637	11.09	487.9	389.01	0.0705	574.3	10.337	20.15	11.95	1.55
	20.50	20.60	69.63	-0.00	0.0635	11.07	487.2	388.39	0.0709	580.2	10.443	20.35	12.10	1.55
	21.50	20.64	69.63	-0.00	0.0636	11.06	486.6	387.91	0.0706	581.0	10.458	20.38	12.12	1.55
	22.51	20.65	69.63	-0.00	0.0637	11.09	488.2	389.21	0.0704	574.5	10.341	20.15	11.95	1.55
	23.51	20.65	69.63	0.00	0.0634	11.03	485.5	387.07	0.0708	583.8	10.509	20.48	12.20	1.55
	24.51	20.64	69.63	0.00	0.0633	11.06	486.6	387.95	0.0708	574.1	10.333	20.14	11.94	1.55
	25.51	20.62	69.63	0.00	0.0632	10.95	481.9	384.14	0.0718	594.7	10.704	20.86	12.48	1.55
	26.49	20.65	69.66	0.00	0.0635	11.05	486.4	387.63	0.0715	583.1	10.495	20.45	12.18	1.55
	27.52	20.65	69.63	-0.00	0.0633	11.00	483.9	385.77	0.0717	595.0	10.709	20.87	12.49	1.55
	28.49	20.65	69.63	0.00	0.0632	10.98	483.3	385.32	0.0709	583.3	10.499	20.46	12.18	1.55
	29.50	20.65	69.63	0.00	0.0632	10.99	483.6	385.56	0.0728	598.4	10.771	20.99	12.57	1.55
	30.50	20.67	69.63	-0.00	0.0632	10.98	483.1	385.15	0.0723	601.4	10.826	21.10	12.65	1.55
	31.50	20.67	69.63	0.00	0.0632	10.99	483.5	385.46	0.0731	606.3	10.913	21.27	12.77	1.55
	32.49	20.67	69.63	0.00	0.0631	10.98	483.2	385.24	0.0734	613.9	11.049	21.53	12.96	1.55
	33.49	20.67	69.63	0.00	0.0629	10.95	481.9	384.20	0.0735	610.7	10.993	21.43	12.89	1.55
	34.51	20.65	69.63	0.00	0.0628	10.90	479.4	382.25	0.0739	620.5	11.168	21.77	13.13	1.55
	35.49	20.67	69.63	0.00	0.0627	10.87	478.3	381.34	0.0734	612.7	11.029	21.50	12.93	1.55
	36.49	20.67	69.66	0.00	0.0628	10.89	479.3	382.01	0.0736	615.6	11.082	21.59	13.01	1.55
	37.49	20.69	69.63	0.00	0.0625	10.83	476.4	379.91	0.0748	626.3	11.273	21.97	13.27	1.55
	38.52	20.65	69.63	-0.00	0.0621	10.78	474.4	378.22	0.0757	633.4	11.400	22.22	13.44	1.55
	39.50	20.69	69.63	0.00	0.0625	10.81	475.5	379.17	0.0735	624.1	11.233	21.90	13.22	1.55
	40.50	20.67	69.63	0.00	0.0626	10.84	477.0	380.36	0.0735	612.0	11.016	21.47	12.92	1.55
	41.50	20.69	69.66	-0.00	0.0624	10.82	476.0	379.44	0.0740	617.9	11.121	21.67	13.06	1.55
	42.49	20.69	69.63	0.00	0.0623	10.80	475.1	378.84	0.0739	617.2	11.110	21.65	13.05	1.55
	43.49	20.70	69.63	0.00	0.0622	10.77	473.8	377.81	0.0738	620.0	11.159	21.75	13.12	1.55
	44.49	20.69	69.63	0.00	0.0619	10.66	469.0	373.95	0.0764	664.0	11.953	23.30	14.17	1.55
	45.51	20.69	69.66	0.00	0.0620	10.70	471.0	375.44	0.0753	642.1	11.558	22.52	13.65	1.55
	46.52	20.69	69.63	0.00	0.0618	10.70	470.7	375.36	0.0759	640.9	11.536	22.48	13.62	1.55
	47.50	20.70	69.68	0.00	0.0617	10.65	468.7	373.49	0.0755	639.0	11.501	22.40	13.58	1.55
	48.52	20.70	69.68	-0.00	0.0616	10.64	468.1	373.01	0.0764	649.3	11.687	22.76	13.83	1.55
	49.50	20.70	69.63	-0.00	0.0619	10.65	468.7	373.78	0.0758	654.7	11.784	22.97	13.95	1.55
	50.51	20.70	69.58	-0.00	0.0619	10.66	469.2	374.44	0.0763	653.1	11.755	22.93	13.92	1.55
	51.50	20.70	69.66	-0.00	0.0618	10.68	470.1	374.75	0.0776	662.8	11.931	23.25	14.14	1.55
	52.49	20.70	69.63	0.00	0.0617	10.65	468.5	373.59	0.0764	653.5	11.763	22.93	13.93	1.55
	53.49	20.70	69.60	0.00	0.0614	10.57	465.0	370.93	0.0783	674.3	12.137	23.67	14.41	1.55
	54.51	20.72	69.63	0.00	0.0613	10.56	464.4	370.38	0.0777	673.0	12.114	23.62	14.38	1.55
	55.51	20.72	69.63	0.00	0.0616	10.63	467.9	373.12	0.0771	656.5	11.817	23.04	14.00	1.55
	56.50	20.72	69.66	0.00	0.0615	10.61	466.6	371.99	0.0770	662.1	11.918	23.22	14.13	1.55
	57.50	20.72	69.63	-0.00	0.0614	10.56	464.6	370.52	0.0776	665.9	11.986	23.37	14.22	1.55
	58.50	20.74	69.63	0.00	0.0614	10.61	466.9	372.37	0.0778	667.7	12.019	23.43	14.26	1.55
	59.48	20.74	69.63	0.00	0.0611	10.52	462.9	369.19	0.0779	666.1	11.989	23.37	14.22	1.55
	60.51	20.74	69.63	-0.00	0.0612	10.55	464.0	370.08	0.0777	669.0	12.041	23.47	14.29	1.55
	61.51	20.74	69.66	-0.00	0.0612	10.56	464.7	370.51	0.0780	672.3	12.101	23.58	14.36	1.55
	62.51	20.75	69.63	-0.00	0.0610	10.49	461.7	368.26	0.0777	667.8	12.020	23.43	14.26	1.55
	63.49	20.74	69.63	0.00	0.0612	10.54	463.7	369.79	0.0773	661.5	11.908	23.21	14.12	1.55
	64.49	20.74	69.63	0.00	0.0611	10.54	463.7	369.85	0.0781	670.7	12.072	23.54	14.33	1.55
	65.49	20.75	69.63	0.00	0.0611	10.51	462.5	368.87	0.0786	669.8	12.056	23.50	14.31	1.55
	66.49	20.74	69.63	-0.00	0.0613	10.58	465.4	371.16	0.0790	684.3	12.317	24.01	14.64	1.55
	67.49	20.74	69.63	0.00	0.0608	10.46	460.2	367.02	0.0792	685.7	12.343	24.06	14.67	1.55
	68.50	20.75	69.63	-0.00	0.0604	10.39	457.1	364.60	0.0792	687.2	12.369	24.11	14.70	1.55
	69.50	20.75	69.68	0.00	0.0607	10.39	457.4	364.52	0.0790	685.4	12.338	24.04	14.67	1.55
	70.50	20.75	69.66	-0.00	0.0605	10.38	456.6	364.00	0.0792	688.0	12.384	24.13	14.72	1.55
	71.50	20.75	69.61	0.00	0.0605	10.41	458.0	365.37	0.0799	690.9	12.436	24.25	14.79	1.55
	72.49	20.75	69.63	0.00	0.0599	10.24	450.4	359.22	0.0808	710.8	12.795	24.94	15.23	1.55
	73.49	20.75	69.63	-0.00	0.0601	10.31	453.8	361.96	0.0811	711.7	12.811	24.98	15.25	1.55
	74.51	20.75	69.63	0.00	0.0605	10.38	456.5	364.10	0.0804	706.5	12.716	24.79	15.13	1.55
	75.50	20.74	69.63	-0.00	0.0607	10.40	457.8	365.11	0.0805	703.5	12.663	24.69	15.07	1.55
	76.56	20.75	69.63	0.00	0.0605	10.40	457.8	365.14	0.0797	694.0	12.493	24.36	14.86	1.55
	77.49	20.75	69.63	0.00	0.0603	10.35	455.4	363.24	0.0802	700.1	12.603	24.57	14.99	1.55
	78.48	20.77	69.60	0.00	0.0601	10.30	453.1	361.53	0.0807	700.4	12.607	24.59	15.00	1.55
	79.50	20.75	69.66	0.00	0.0600	10.28	452.4	360.65	0.0804	702.7	12.648	24.65	15.05	1.55
	80.48	20.77	69.63	0.00	0.0600	10.24	450.7	359.53	0.0817	722.4	13.004	25.35	15.48	1.55
	81.51	20.77	69.63	-0.00	0.0600	10.31	453.6	361.79	0.0812	713.1	12.836	25.03	15.28	1.55
	82.48	20.77	69.63	0.00	0.0597	10.24	450.8	359.53	0.0812	712.0	12.816	24.99	15.26	1.55
	83.49	20.77	69.63	0.00	0.0596	10.18	448.0	357.34	0.0820	723.6	13.025	25.39	15.51	1.55
	84.49	20.79	69.63	-0.00	0.0599	10.27	451.7	360.28	0.0815	716.6	12.899	25.15	15.36	1.55
	85.52	20.77	69.63	-0.00	0.0599	10.28	452.4	360.86	0.0812	715.0	12.869	25.09	15.32	1.55
	86.49	20.79	69.66	0.00	0.0597	10.22	449.5	358.44	0.0811	713.2	12.837	25.02	15.28	1.55
	87.52	20.79	69.66	-0.00	0.0596	10.18	448.1	357.27	0.0814	715.5	12.880	25.10	15.34	1.55
	88.48	20.77	69.63	0.00	0.0594	10.17	447.7	357.05	0.0816	718.5	12.934	25.22	15.40	1.55
	89.51	20.79	69.63	-0.00	0.0600	10.26	451.5	360.13	0.0816	717.3	12.912	25.18	15.37	1.55
	90.50	20.79	69.66	-0.00	0.0600	10.29	452.9	361.13	0.0812	713.5	12.844	25.03	15.29	1.56
	91.49	20.77	69.63	0.00	0.0603	10.34	455.0	362.92	0.0811	712.0	12.816	24.99	15.26	1.55
	92.49	20.79	69.63	-0.00	0.0601	10.29	452.8	361.14	0.0812	713.5	12.843	25.04	15.29	1.55
	93.51	20.79	69.63	-0.00	0.0599	10.26	451.5	360.14	0.0811	711.9	12.814	24.99	15.26	1.55
	94.49	20.79	69.66	0.00	0.0599	10.27	451.7	360.17	0.0815	717.8	12.920	25.18	15.38	1.55
	95.50	20.81	69.65	0.00	0.0601	10.31	453.6	361.75	0.0814	716.6	12.899	25.14	15.36	1.56
	96.49	20.81	69.63	0.00	0.0602	10.33	454.3	362.42	0.0815	718.4	12.931	25.22	15.40	1.56
	97.50	20.81	69.63	0.00	0.0603	10.34	455.0	362.96	0.0812	714.9	12.867	25.09	15.32	1.56
	98.51	20.81	69.63	-0.00	0.0600	10.30	453.0	361.39	0.0811	712.8	12.831	25.02	15.28	1.56
	99.50	20.81	69.63	-0.00	0.0599	10.26	451.6	360.21	0.0812	712.7	12.828	25.01	15.27	1.56
	100.51	20.81	69.66	-0.00	0.0601	10.30	453.0	361.22	0.0814	715.7	12.883	25.11	15.34	1.56
	101.49	20.81	69.66	-0.00	0.0604	10.36	456.0	363.65	0.0813	714.9	12.869	25.08	15.32	1.56
	102.51	20.79	69.66	-0.00	0.0604	10.37	456.2	363.73	0.0811	712.2	12.820	24.99	15.26	1.56
	103.49	20.79	69.63	0.00	0.0601	10.31	453.8	361.97	0.0818	719.6	12.954	25.26	15.42	1.56
	104.49	20.82	69.63	0.00	0.0599	10.24	450.5	359.41	0.0818	722.3	13.002	25.35	15.48	1.56
	105.49	20.82	69.63	0.00	0.0600	10.27	452.0	360.60	0.0818	720.8	12.975	25.30	15.45	1.56
	106.49	20.82	69.63	0.00	0.0598	10.25	451.0	359.77	0.0823	727.0	13.086	25.52	15.59	1.56
	107.50	20.84	69.66	-0.00	0.0599	10.23	450.0	358.87	0.0819	726.1	13.070	25.48	15.57	1.56
	108.50	20.82	69.63	-0.00	0.0595	10.18	448.1	357.50	0.0821	725.8	13.065	25.48	15.56	1.56
	109.58	20.82	69.63	0.00	0.0598	10.23	450.1	359.10	0.0821	726.3	13.073	25.49	15.57	1.56
	110.50	20.84	69.63	0.00	0.0597	10.20	448.9	358.11	0.0823	728.6	13.115	25.58	15.62	1.56
	111.57	20.84	69.63	0.00	0.0596	10.21	449.2	358.41	0.0826	729.9	13.138	25.62	15.65	1.56
	112.49	20.82	69.66	0.00	0.0594	10.16	447.0	356.45	0.0828	735.0	13.231	25.79	15.76	1.56
	113.51	20.84	69.63	-0.00	0.0596	10.18	448.0	357.43	0.0823	730.0	13.140	25.63	15.65	1.56
	114.50	20.84	69.66	-0.00	0.0594	10.14	446.0	355.71	0.0827	735.6	13.241	25.81	15.77	1.56
	115.50	20.86	69.66	-0.00	0.0594	10.15	446.6	356.19	0.0828	735.5	13.239	25.81	15.77	1.56
	116.50	20.84	69.63	-0.00	0.0590	10.08	443.4	353.77	0.0833	739.9	13.319	25.97	15.86	1.56
	117.48	20.86	69.68	0.00	0.0590	10.06	442.5	352.83	0.0835	744.1	13.394	26.10	15.95	1.56
	118.50	20.86	69.63	0.00	0.0589	10.04	441.8	352.49	0.0836	745.5	13.418	26.17	15.98	1.56
	119.48	20.85	69.66	0.00	0.0588	10.04	441.7	352.26	0.0838	747.4	13.454	26.23	16.02	1.56
	120.51	20.89	69.68	-0.00	0.0588	10.01	440.6	351.31	0.0836	746.1	13.430	26.18	15.99	1.56
