Jul 27 2015 at 10:06:55
Frequency: 1.00Hz.
CO2
Zero:  Value:0.95  Date:18 Mar 2005	 at 07:22:33	
Span:  Value:1.00  Date:18 Mar 2005	 at 07:25:09	
H2O
Zero:  Value:0.71  Date:18 Mar 2005	 at 07:52:31	
Span:  Value:0.99  Date:18 Mar 2005	 at 11:44:01	
	Relative Time	Temperature	Pressure	Aux Input	CO2 Absorptance	CO2 mmol/m3	CO2 mg/m3	CO2 umol/mol	H2O Absorptance	H2O mmol/m3	H2O g/m3	H2O mmol/mol	H2O(°C)	Cooler Voltage
	0.02	25.13	69.58	0.00	0.0559	9.39	413.2	334.71	0.0920	866.0	15.588	30.87	18.58	1.54
	1.08	25.15	69.58	0.00	0.0559	9.40	413.6	335.04	0.0918	863.3	15.539	30.77	18.53	1.54
	2.01	25.09	69.60	0.00	0.0557	9.37	412.1	333.65	0.0922	866.6	15.599	30.87	18.59	1.54
	3.01	25.13	69.58	-0.00	0.0560	9.40	413.6	335.05	0.0917	863.4	15.542	30.78	18.53	1.54
	4.03	25.11	69.58	-0.00	0.0561	9.46	416.4	337.32	0.0917	856.5	15.418	30.53	18.40	1.54
	5.02	25.13	69.58	-0.00	0.0563	9.49	417.4	338.12	0.0913	856.0	15.409	30.51	18.39	1.54
	6.02	25.11	69.58	-0.00	0.0560	9.42	414.4	335.68	0.0920	863.4	15.542	30.77	18.53	1.54
	7.02	25.13	69.60	0.00	0.0557	9.37	412.1	333.70	0.0925	872.9	15.713	31.10	18.70	1.54
	8.03	25.11	69.60	-0.00	0.0560	9.41	413.8	335.08	0.0918	864.0	15.552	30.78	18.54	1.54
	9.05	25.12	69.58	0.00	0.0561	9.44	415.4	336.48	0.0913	854.9	15.387	30.47	18.37	1.54
	10.02	25.13	69.60	0.00	0.0562	9.42	414.5	335.68	0.0904	853.3	15.359	30.40	18.34	1.54
	11.01	25.13	69.60	0.00	0.0565	9.53	419.2	339.45	0.0897	831.5	14.966	29.62	17.93	1.54
	12.03	25.12	69.60	0.00	0.0564	9.50	418.1	338.58	0.0902	841.7	15.150	29.99	18.12	1.54
	13.01	25.14	69.58	0.00	0.0575	9.72	427.5	346.34	0.0867	796.2	14.331	28.38	17.24	1.54
	14.03	25.16	69.56	-0.00	0.0574	9.72	427.6	346.55	0.0874	800.7	14.412	28.55	17.33	1.54
	15.01	25.16	69.58	0.00	0.0575	9.75	428.8	347.37	0.0869	794.0	14.293	28.30	17.20	1.54
	16.10	25.16	69.60	-0.00	0.0576	9.76	429.3	347.71	0.0864	786.2	14.152	28.02	17.04	1.55
	17.00	25.16	69.55	0.00	0.0578	9.80	431.2	349.49	0.0857	776.0	13.967	27.67	16.84	1.54
	18.03	25.19	69.58	-0.00	0.0580	9.86	433.9	351.54	0.0853	769.0	13.843	27.42	16.70	1.54
	19.02	25.16	69.61	-0.00	0.0582	9.89	435.0	352.24	0.0853	767.8	13.821	27.36	16.67	1.54
	20.02	25.16	69.55	0.00	0.0581	9.87	434.3	351.96	0.0852	768.6	13.834	27.41	16.69	1.54
	21.08	25.14	69.58	0.00	0.0582	9.89	435.2	352.56	0.0847	761.3	13.704	27.14	16.54	1.54
	22.01	25.16	69.58	0.00	0.0581	9.89	435.1	352.51	0.0844	759.2	13.665	27.06	16.49	1.55
	23.03	25.18	69.57	0.00	0.0582	9.89	435.3	352.66	0.0840	751.4	13.525	26.79	16.33	1.54
	24.02	25.18	69.58	0.00	0.0582	9.89	435.2	352.56	0.0841	753.7	13.567	26.87	16.38	1.54
	25.02	25.18	69.60	0.00	0.0581	9.88	434.8	352.16	0.0840	752.2	13.540	26.81	16.35	1.54
	26.02	25.18	69.60	-0.00	0.0581	9.84	433.2	350.83	0.0844	758.3	13.649	27.02	16.48	1.54
	27.04	25.20	69.58	-0.00	0.0581	9.86	434.0	351.69	0.0846	759.6	13.672	27.08	16.50	1.54
	28.02	25.16	69.58	-0.00	0.0580	9.87	434.1	351.69	0.0843	757.4	13.633	27.00	16.46	1.55
	29.02	25.18	69.58	0.00	0.0581	9.87	434.3	351.83	0.0846	759.0	13.661	27.06	16.49	1.54
	30.00	25.16	69.58	0.00	0.0580	9.86	433.8	351.42	0.0848	761.4	13.706	27.14	16.54	1.54
	31.01	25.18	69.58	0.00	0.0581	9.86	434.0	351.63	0.0846	760.5	13.689	27.11	16.52	1.54
	32.03	25.18	69.55	-0.00	0.0581	9.86	433.8	351.62	0.0846	759.4	13.670	27.08	16.50	1.54
	33.01	25.16	69.58	0.00	0.0581	9.86	434.0	351.60	0.0843	758.7	13.656	27.04	16.48	1.54
	34.02	25.22	69.58	0.00	0.0582	9.87	434.2	351.82	0.0842	758.5	13.654	27.04	16.48	1.55
	35.01	25.20	69.60	0.00	0.0579	9.84	432.9	350.67	0.0848	763.1	13.736	27.20	16.58	1.54
	36.02	25.20	69.58	0.00	0.0582	9.88	434.8	352.30	0.0841	754.3	13.578	26.89	16.39	1.54
	37.02	25.21	69.58	-0.00	0.0583	9.93	437.0	354.08	0.0836	746.0	13.428	26.60	16.22	1.54
	38.02	25.21	69.60	0.00	0.0583	9.91	436.2	353.32	0.0836	745.8	13.424	26.58	16.22	1.54
	39.02	25.22	69.60	-0.00	0.0582	9.90	435.8	353.01	0.0836	746.5	13.437	26.60	16.23	1.54
	40.03	25.22	69.58	0.00	0.0582	9.89	435.2	352.65	0.0837	749.3	13.488	26.72	16.29	1.55
	41.01	25.22	69.60	-0.00	0.0581	9.86	433.8	351.39	0.0844	757.4	13.633	26.99	16.46	1.55
	42.03	25.22	69.61	-0.00	0.0578	9.82	432.2	350.08	0.0847	761.2	13.701	27.13	16.54	1.54
	43.01	25.20	69.60	0.00	0.0578	9.80	431.1	349.16	0.0849	763.6	13.745	27.21	16.59	1.54
	44.02	25.22	69.58	-0.00	0.0577	9.80	431.3	349.51	0.0851	766.8	13.802	27.34	16.65	1.54
	45.09	25.22	69.58	-0.00	0.0578	9.80	431.3	349.51	0.0851	767.2	13.809	27.35	16.66	1.55
	46.04	25.24	69.60	-0.00	0.0579	9.83	432.7	350.52	0.0848	764.1	13.754	27.23	16.60	1.55
	47.02	25.24	69.60	-0.00	0.0581	9.86	433.9	351.44	0.0848	762.3	13.722	27.17	16.56	1.54
	48.03	25.25	69.63	-0.00	0.0580	9.84	433.1	350.72	0.0850	765.3	13.775	27.27	16.62	1.54
	49.03	25.23	69.56	-0.00	0.0579	9.83	432.6	350.65	0.0851	765.9	13.785	27.31	16.63	1.54
	50.03	25.23	69.58	-0.00	0.0580	9.84	433.0	350.91	0.0849	764.7	13.764	27.26	16.61	1.55
	51.01	25.23	69.60	0.00	0.0577	9.80	431.1	349.22	0.0854	770.6	13.871	27.47	16.73	1.55
	52.03	25.23	69.58	-0.00	0.0578	9.79	430.9	349.16	0.0852	770.1	13.862	27.46	16.72	1.55
	53.01	25.24	69.58	0.00	0.0577	9.79	430.9	349.18	0.0853	769.6	13.852	27.44	16.71	1.54
	54.02	25.24	69.58	0.00	0.0575	9.74	428.7	347.40	0.0858	778.0	14.004	27.74	16.88	1.54
	55.02	25.27	69.58	-0.00	0.0575	9.75	428.9	347.55	0.0860	777.8	14.000	27.73	16.88	1.54
	56.04	25.24	69.58	-0.00	0.0574	9.72	427.8	346.65	0.0862	782.1	14.078	27.89	16.97	1.55
	57.00	25.25	69.60	0.00	0.0575	9.73	428.3	346.99	0.0859	778.3	14.009	27.74	16.89	1.55
	58.03	25.28	69.60	-0.00	0.0576	9.76	429.4	347.89	0.0857	776.1	13.969	27.66	16.84	1.54
	59.02	25.23	69.58	-0.00	0.0576	9.75	429.2	347.80	0.0857	776.9	13.984	27.70	16.86	1.55
	60.03	25.27	69.58	-0.00	0.0575	9.75	429.1	347.79	0.0858	776.2	13.972	27.68	16.85	1.55
	61.03	25.27	69.58	-0.00	0.0574	9.72	427.5	346.45	0.0861	781.7	14.071	27.88	16.96	1.55
	62.03	25.27	69.58	-0.00	0.0575	9.75	428.8	347.54	0.0860	778.4	14.011	27.76	16.89	1.55
	63.04	25.29	69.58	-0.00	0.0575	9.74	428.7	347.43	0.0861	782.3	14.081	27.90	16.97	1.55
	64.01	25.27	69.60	0.00	0.0576	9.75	429.0	347.55	0.0863	783.5	14.102	27.93	16.99	1.55
	65.02	25.31	69.60	0.00	0.0575	9.74	428.6	347.30	0.0863	784.0	14.112	27.95	17.01	1.55
	66.00	25.29	69.57	0.00	0.0573	9.71	427.1	346.14	0.0863	784.8	14.126	27.99	17.02	1.55
	67.03	25.29	69.60	-0.00	0.0573	9.71	427.4	346.28	0.0865	784.4	14.118	27.96	17.01	1.55
	68.02	25.29	69.60	-0.00	0.0572	9.69	426.2	345.34	0.0867	786.7	14.161	28.05	17.06	1.55
	69.03	25.30	69.58	0.00	0.0572	9.68	425.8	345.09	0.0869	792.4	14.263	28.26	17.18	1.55
	70.01	25.29	69.58	0.00	0.0573	9.68	426.1	345.33	0.0868	790.1	14.222	28.18	17.13	1.55
	71.01	25.31	69.58	0.00	0.0572	9.69	426.3	345.50	0.0871	795.2	14.314	28.36	17.23	1.55
	72.01	25.29	69.61	-0.00	0.0572	9.66	425.0	344.34	0.0873	798.9	14.380	28.48	17.30	1.55
	73.01	25.31	69.58	0.00	0.0571	9.66	425.1	344.60	0.0871	796.4	14.335	28.40	17.25	1.55
	74.01	25.31	69.58	0.00	0.0570	9.64	424.0	343.66	0.0873	797.2	14.350	28.43	17.27	1.55
	75.01	25.29	69.60	0.00	0.0570	9.64	424.1	343.59	0.0871	796.0	14.328	28.38	17.25	1.55
	76.00	25.31	69.58	0.00	0.0571	9.66	424.9	344.39	0.0871	795.2	14.314	28.36	17.23	1.55
	77.00	25.30	69.60	0.00	0.0570	9.64	424.0	343.55	0.0874	799.5	14.391	28.50	17.32	1.55
	78.02	25.31	69.58	0.00	0.0571	9.65	424.5	344.11	0.0874	798.6	14.374	28.48	17.30	1.55
	79.02	25.33	69.58	0.00	0.0570	9.61	423.0	342.92	0.0879	804.4	14.479	28.69	17.41	1.55
	80.03	25.34	69.58	-0.00	0.0568	9.59	422.0	342.07	0.0884	814.9	14.668	29.06	17.62	1.55
	81.03	25.33	69.58	-0.00	0.0568	9.60	422.6	342.55	0.0880	806.9	14.523	28.78	17.46	1.55
	82.03	25.33	69.58	-0.00	0.0566	9.56	420.7	341.05	0.0883	811.8	14.612	28.95	17.56	1.55
	83.02	25.35	69.61	-0.00	0.0566	9.56	420.5	340.73	0.0886	816.2	14.692	29.10	17.65	1.55
	84.01	25.34	69.58	0.00	0.0567	9.56	420.7	341.03	0.0884	813.2	14.637	29.00	17.59	1.55
	85.02	25.33	69.60	-0.00	0.0567	9.56	420.8	340.99	0.0882	811.6	14.609	28.94	17.56	1.55
	86.00	25.33	69.60	0.00	0.0567	9.55	420.4	340.64	0.0884	813.9	14.649	29.02	17.60	1.55
	87.02	25.30	69.58	0.00	0.0566	9.55	420.2	340.56	0.0883	813.8	14.649	29.02	17.60	1.55
	88.02	25.34	69.58	0.00	0.0565	9.54	419.7	340.23	0.0885	816.0	14.689	29.11	17.64	1.55
	89.03	25.34	69.58	-0.00	0.0565	9.52	419.1	339.73	0.0882	811.8	14.613	28.96	17.56	1.55
	90.09	25.30	69.58	0.00	0.0564	9.52	418.9	339.50	0.0885	810.1	14.583	28.89	17.53	1.55
	91.03	25.34	69.58	0.00	0.0562	9.45	415.6	336.88	0.0891	825.7	14.863	29.45	17.83	1.55
	92.03	25.34	69.58	0.00	0.0563	9.48	417.1	338.13	0.0889	820.9	14.776	29.28	17.74	1.55
	93.01	25.36	69.58	0.00	0.0563	9.48	417.3	338.27	0.0888	820.2	14.764	29.26	17.72	1.55
	94.04	25.36	69.55	-0.00	0.0561	9.46	416.3	337.59	0.0892	825.6	14.861	29.46	17.83	1.55
	95.08	25.36	69.58	-0.00	0.0561	9.45	416.0	337.21	0.0894	827.1	14.887	29.50	17.86	1.55
	96.03	25.36	69.58	-0.00	0.0560	9.42	414.3	335.89	0.0896	830.9	14.957	29.64	17.93	1.55
	97.02	25.36	69.58	-0.00	0.0559	9.40	413.8	335.42	0.0897	832.7	14.989	29.70	17.96	1.55
	98.02	25.36	69.58	0.00	0.0558	9.39	413.2	334.92	0.0897	832.8	14.990	29.70	17.97	1.55
	99.01	25.36	69.58	-0.00	0.0558	9.38	412.8	334.63	0.0899	834.4	15.019	29.76	18.00	1.55
	100.01	25.38	69.58	0.00	0.0560	9.41	414.2	335.82	0.0898	834.6	15.024	29.77	18.00	1.55
	101.01	25.36	69.58	0.00	0.0559	9.40	413.5	335.20	0.0898	832.4	14.983	29.69	17.96	1.55
	102.01	25.38	69.58	0.00	0.0559	9.39	413.1	334.93	0.0900	834.8	15.027	29.78	18.01	1.55
	103.01	25.38	69.55	-0.00	0.0557	9.38	412.7	334.69	0.0902	837.0	15.066	29.87	18.05	1.55
	104.04	25.39	69.58	-0.00	0.0556	9.34	411.1	333.26	0.0903	842.2	15.159	30.04	18.15	1.55
	105.02	25.38	69.58	0.00	0.0556	9.34	411.1	333.27	0.0904	841.0	15.138	30.00	18.12	1.55
	106.02	25.42	69.60	-0.00	0.0555	9.33	410.3	332.59	0.0908	848.6	15.275	30.27	18.27	1.55
	107.02	25.38	69.58	0.00	0.0556	9.34	410.9	333.13	0.0906	844.0	15.192	30.11	18.18	1.55
	108.02	25.40	69.58	-0.00	0.0555	9.33	410.6	332.87	0.0907	844.4	15.200	30.12	18.19	1.55
	109.03	25.40	69.58	-0.00	0.0554	9.28	408.4	331.12	0.0909	850.6	15.312	30.35	18.31	1.55
	110.01	25.40	69.58	-0.00	0.0555	9.32	410.0	332.39	0.0904	843.4	15.182	30.09	18.17	1.55
	111.03	25.40	69.60	-0.00	0.0555	9.33	410.4	332.61	0.0905	843.4	15.182	30.08	18.17	1.55
	112.01	25.42	69.58	0.00	0.0556	9.33	410.6	332.96	0.0906	844.8	15.207	30.14	18.20	1.55
	113.02	25.37	69.60	0.00	0.0555	9.33	410.4	332.61	0.0907	845.3	15.216	30.14	18.20	1.55
	114.02	25.39	69.58	0.00	0.0554	9.31	409.6	332.11	0.0907	847.2	15.249	30.22	18.24	1.55
	115.03	25.40	69.58	-0.00	0.0555	9.30	409.2	331.77	0.0909	850.6	15.310	30.34	18.30	1.55
	116.02	25.41	69.60	0.00	0.0554	9.29	408.6	331.21	0.0910	852.0	15.336	30.38	18.33	1.55
	117.02	25.41	69.58	0.00	0.0554	9.30	409.4	331.92	0.0911	851.7	15.331	30.38	18.33	1.55
	118.02	25.42	69.58	0.00	0.0553	9.28	408.4	331.16	0.0913	854.8	15.387	30.50	18.38	1.55
	119.01	25.43	69.58	0.00	0.0554	9.29	408.8	331.52	0.0912	853.3	15.359	30.44	18.36	1.55
	120.01	25.45	69.58	0.00	0.0554	9.30	409.3	331.91	0.0909	849.7	15.294	30.32	18.29	1.55
	121.01	25.43	69.58	0.00	0.0555	9.31	409.8	332.33	0.0910	850.1	15.301	30.33	18.30	1.55
