Jul 27 2015 at 9:53:46
Frequency: 1.00Hz.
CO2
Zero:  Value:0.95  Date:18 Mar 2005	 at 07:22:33	
Span:  Value:1.00  Date:18 Mar 2005	 at 07:25:09	
H2O
Zero:  Value:0.71  Date:18 Mar 2005	 at 07:52:31	
Span:  Value:0.99  Date:18 Mar 2005	 at 11:44:01	
	Relative Time	Temperature	Pressure	Aux Input	CO2 Absorptance	CO2 mmol/m3	CO2 mg/m3	CO2 umol/mol	H2O Absorptance	H2O mmol/m3	H2O g/m3	H2O mmol/mol	H2O(°C)	Cooler Voltage
	0.59	22.93	69.61	0.00	0.0644	11.24	494.4	397.38	0.0645	513.0	9.234	18.14	10.36	1.49
	1.61	22.91	69.61	0.00	0.0639	11.19	492.3	395.67	0.0650	515.0	9.270	18.21	10.42	1.49
	2.61	22.93	69.60	0.00	0.0639	11.16	491.1	394.70	0.0651	513.9	9.251	18.18	10.39	1.49
	3.60	22.95	69.60	0.00	0.0638	11.12	489.3	393.31	0.0649	512.8	9.231	18.14	10.36	1.49
	4.60	22.93	69.61	0.00	0.0636	11.11	488.7	392.83	0.0649	511.2	9.202	18.08	10.31	1.49
	5.62	22.97	69.58	-0.00	0.0635	11.06	486.6	391.34	0.0648	510.4	9.188	18.06	10.29	1.49
	6.62	22.94	69.63	-0.00	0.0632	11.02	484.7	389.45	0.0642	504.3	9.077	17.83	10.11	1.49
	7.61	22.95	69.60	-0.00	0.0632	10.97	482.6	387.92	0.0642	502.1	9.038	17.76	10.04	1.49
	8.69	22.95	69.61	-0.00	0.0633	11.02	485.0	389.83	0.0644	506.6	9.118	17.92	10.17	1.49
	9.61	22.96	69.66	-0.00	0.0632	11.00	484.2	388.95	0.0645	507.0	9.126	17.92	10.19	1.49
	10.61	22.98	69.61	0.00	0.0633	11.01	484.5	389.45	0.0646	507.6	9.136	17.95	10.21	1.49
	11.61	22.96	69.60	-0.00	0.0633	11.02	485.1	389.94	0.0647	509.4	9.169	18.02	10.26	1.49
	12.61	22.94	69.63	0.00	0.0633	11.00	484.0	388.86	0.0646	507.9	9.142	17.96	10.21	1.49
	13.68	22.98	69.60	0.00	0.0634	11.03	485.3	390.14	0.0651	513.6	9.246	18.17	10.38	1.49
	14.60	22.96	69.60	0.00	0.0632	10.99	483.6	388.75	0.0651	513.1	9.236	18.15	10.37	1.49
	15.68	22.96	69.63	0.00	0.0633	11.01	484.4	389.24	0.0658	520.2	9.364	18.39	10.57	1.49
	16.61	22.95	69.60	-0.00	0.0632	10.98	483.3	388.47	0.0659	524.0	9.431	18.53	10.68	1.49
	17.61	22.96	69.58	0.00	0.0633	11.00	484.0	389.25	0.0660	522.6	9.407	18.49	10.64	1.49
	18.60	22.96	69.61	0.00	0.0631	10.98	483.2	388.43	0.0658	524.5	9.440	18.55	10.70	1.49
	19.61	22.95	69.60	-0.00	0.0631	10.98	483.3	388.48	0.0656	520.5	9.369	18.41	10.58	1.49
	20.59	22.98	69.60	0.00	0.0631	10.98	483.1	388.33	0.0653	517.2	9.310	18.30	10.49	1.49
	21.61	22.98	69.61	0.00	0.0629	10.94	481.2	386.82	0.0653	515.1	9.271	18.22	10.43	1.49
	22.67	22.98	69.61	0.00	0.0630	10.94	481.4	387.02	0.0659	522.7	9.408	18.49	10.65	1.49
	23.62	22.98	69.63	-0.00	0.0630	10.96	482.1	387.39	0.0659	523.2	9.418	18.50	10.66	1.49
	24.62	22.98	69.61	0.00	0.0631	10.96	482.4	387.80	0.0660	525.7	9.462	18.59	10.73	1.49
	25.63	22.98	69.60	-0.00	0.0629	10.93	481.1	386.79	0.0660	524.8	9.446	18.56	10.71	1.49
	26.61	22.98	69.63	0.00	0.0630	10.94	481.3	386.79	0.0663	527.6	9.498	18.66	10.79	1.49
	27.63	23.00	69.65	-0.00	0.0629	10.93	481.0	386.44	0.0667	532.9	9.593	18.84	10.94	1.49
	28.61	23.00	69.60	-0.00	0.0630	10.95	481.7	387.30	0.0671	536.0	9.648	18.96	11.03	1.49
	29.61	23.00	69.58	0.00	0.0629	10.93	480.8	386.73	0.0677	543.0	9.773	19.21	11.22	1.49
	30.62	22.98	69.60	-0.00	0.0629	10.93	481.1	386.74	0.0677	544.2	9.795	19.25	11.25	1.49
	31.61	23.00	69.63	0.00	0.0629	10.93	480.7	386.32	0.0677	545.5	9.819	19.29	11.29	1.49
	32.62	23.02	69.63	-0.00	0.0628	10.91	480.0	385.76	0.0675	541.7	9.751	19.16	11.19	1.49
	33.62	23.01	69.60	-0.00	0.0628	10.90	479.6	385.62	0.0675	540.2	9.723	19.11	11.14	1.49
	34.60	23.03	69.58	-0.00	0.0628	10.89	479.2	385.42	0.0685	551.1	9.919	19.50	11.44	1.49
	35.62	23.01	69.61	-0.00	0.0629	10.91	480.1	386.01	0.0686	555.6	10.001	19.66	11.57	1.49
	36.60	23.01	69.61	0.00	0.0627	10.90	479.4	385.46	0.0684	552.1	9.938	19.53	11.47	1.50
	37.60	23.02	69.61	0.00	0.0626	10.86	477.6	384.00	0.0688	557.4	10.033	19.72	11.62	1.49
	38.59	23.02	69.63	0.00	0.0627	10.88	478.7	384.72	0.0687	557.8	10.041	19.73	11.63	1.49
	39.61	23.02	69.60	-0.00	0.0624	10.82	476.2	382.86	0.0682	552.7	9.949	19.55	11.49	1.49
	40.62	23.01	69.63	-0.00	0.0626	10.85	477.6	383.81	0.0685	552.5	9.944	19.54	11.48	1.49
	41.62	23.03	69.60	-0.00	0.0627	10.88	478.6	384.80	0.0694	563.3	10.140	19.93	11.78	1.49
	42.62	23.03	69.60	-0.00	0.0626	10.86	477.8	384.14	0.0694	565.0	10.169	19.99	11.82	1.49
	43.62	23.02	69.63	-0.00	0.0625	10.83	476.5	382.98	0.0694	564.2	10.155	19.95	11.80	1.49
	44.62	23.03	69.60	-0.00	0.0624	10.82	476.1	382.85	0.0692	565.9	10.187	20.02	11.85	1.50
	45.60	23.03	69.58	0.00	0.0626	10.86	478.0	384.49	0.0698	569.3	10.247	20.15	11.94	1.49
	46.61	23.05	69.60	0.00	0.0625	10.84	476.9	383.45	0.0701	572.3	10.301	20.25	12.02	1.49
	47.61	23.03	69.63	-0.00	0.0625	10.81	475.8	382.48	0.0698	568.3	10.230	20.10	11.91	1.50
	48.61	23.01	69.60	-0.00	0.0625	10.84	476.8	383.31	0.0701	572.0	10.297	20.24	12.01	1.50
	49.59	23.03	69.63	0.00	0.0626	10.84	477.1	383.46	0.0701	571.3	10.283	20.20	11.99	1.50
	50.61	23.05	69.63	0.00	0.0626	10.83	476.4	382.97	0.0702	573.2	10.318	20.27	12.04	1.50
	51.59	23.03	69.63	0.00	0.0625	10.84	477.0	383.40	0.0702	574.6	10.343	20.32	12.08	1.50
	52.62	23.05	69.63	-0.00	0.0626	10.86	477.6	383.92	0.0694	573.3	10.320	20.28	12.05	1.50
	53.60	23.05	69.61	-0.00	0.0636	11.17	491.3	395.02	0.0665	519.4	9.350	18.38	10.56	1.50
	54.62	23.03	69.61	-0.00	0.0632	11.00	483.8	389.00	0.0679	544.6	9.802	19.27	11.27	1.50
	55.62	23.05	69.63	-0.00	0.0630	10.94	481.2	386.82	0.0691	560.0	10.080	19.81	11.69	1.50
	56.63	23.05	69.60	-0.00	0.0631	10.97	482.5	387.97	0.0679	548.6	9.874	19.41	11.38	1.50
	57.61	23.03	69.60	0.00	0.0632	10.96	482.2	387.73	0.0677	549.2	9.886	19.43	11.39	1.50
	58.61	23.06	69.58	0.00	0.0630	10.93	480.9	386.89	0.0686	556.8	10.023	19.71	11.60	1.50
	59.69	23.07	69.61	0.00	0.0625	10.85	477.2	383.72	0.0691	562.9	10.132	19.92	11.77	1.50
	60.61	23.06	69.61	0.00	0.0626	10.85	477.3	383.79	0.0698	569.7	10.254	20.16	11.95	1.50
	61.60	23.06	69.58	0.00	0.0628	10.89	479.3	385.59	0.0698	572.5	10.305	20.26	12.03	1.50
	62.59	23.06	69.63	0.00	0.0626	10.85	477.2	383.64	0.0709	580.8	10.454	20.54	12.24	1.50
	63.62	23.08	69.58	-0.00	0.0625	10.83	476.4	383.24	0.0714	589.7	10.614	20.87	12.48	1.50
	64.62	23.08	69.63	0.00	0.0628	10.90	479.5	385.49	0.0700	577.1	10.387	20.41	12.15	1.50
	65.60	23.08	69.60	0.00	0.0627	10.86	477.8	384.24	0.0706	577.0	10.387	20.42	12.15	1.50
	66.61	23.08	69.63	0.00	0.0624	10.82	476.0	382.68	0.0710	585.4	10.538	20.71	12.37	1.50
	67.61	23.10	69.60	-0.00	0.0622	10.76	473.5	380.77	0.0714	589.7	10.615	20.87	12.48	1.50
	68.61	23.10	69.63	0.00	0.0623	10.78	474.5	381.45	0.0724	600.9	10.816	21.25	12.76	1.50
	69.59	23.10	69.66	0.00	0.0624	10.82	475.9	382.49	0.0720	596.2	10.731	21.08	12.64	1.50
	70.61	23.12	69.60	-0.00	0.0623	10.80	475.3	382.25	0.0722	595.2	10.714	21.06	12.62	1.50
	71.61	23.10	69.61	0.00	0.0621	10.75	473.0	380.40	0.0730	608.9	10.960	21.55	12.96	1.50
	72.62	23.12	69.60	-0.00	0.0621	10.75	473.1	380.50	0.0730	607.8	10.940	21.51	12.94	1.50
	73.60	23.12	69.66	0.00	0.0620	10.72	471.6	379.04	0.0723	597.9	10.763	21.14	12.69	1.50
	74.62	23.14	69.60	-0.00	0.0620	10.73	472.0	379.69	0.0734	612.9	11.032	21.69	13.07	1.50
	75.61	23.10	69.61	-0.00	0.0619	10.72	471.7	379.35	0.0732	612.3	11.022	21.67	13.05	1.50
	76.61	23.13	69.60	-0.00	0.0619	10.70	470.8	378.66	0.0736	614.2	11.055	21.74	13.10	1.50
	77.61	23.14	69.63	-0.00	0.0620	10.72	471.7	379.29	0.0739	619.9	11.158	21.93	13.24	1.50
	78.59	23.14	69.63	0.00	0.0618	10.69	470.4	378.22	0.0731	613.6	11.045	21.71	13.08	1.50
	79.61	23.14	69.61	-0.00	0.0618	10.68	470.0	377.99	0.0732	609.3	10.968	21.56	12.98	1.50
	80.61	23.14	69.61	-0.00	0.0619	10.70	470.7	378.56	0.0736	615.8	11.084	21.79	13.14	1.50
	81.68	23.15	69.63	-0.00	0.0619	10.70	471.0	378.74	0.0738	617.8	11.121	21.86	13.19	1.50
	82.59	23.15	69.63	0.00	0.0617	10.68	469.9	377.86	0.0732	615.0	11.070	21.76	13.12	1.51
	83.62	23.14	69.63	-0.00	0.0618	10.67	469.4	377.42	0.0733	610.8	10.995	21.61	13.02	1.50
	84.58	23.15	69.63	0.00	0.0618	10.68	469.9	377.88	0.0737	616.5	11.098	21.81	13.16	1.50
	85.61	23.17	69.60	0.00	0.0618	10.69	470.3	378.29	0.0743	624.4	11.240	22.10	13.35	1.50
	86.60	23.17	69.60	0.00	0.0618	10.67	469.5	377.71	0.0745	625.3	11.256	22.13	13.38	1.50
	87.63	23.17	69.60	-0.00	0.0618	10.67	469.4	377.58	0.0746	628.5	11.312	22.25	13.45	1.51
	88.61	23.17	69.63	0.00	0.0618	10.68	470.0	377.93	0.0747	630.4	11.348	22.31	13.50	1.51
	89.61	23.17	69.60	0.00	0.0619	10.69	470.5	378.45	0.0747	629.7	11.335	22.29	13.48	1.50
	90.61	23.15	69.60	-0.00	0.0618	10.69	470.3	378.31	0.0740	625.6	11.260	22.14	13.38	1.50
	91.60	23.13	69.60	0.00	0.0617	10.66	468.9	377.13	0.0745	623.9	11.231	22.08	13.34	1.51
	92.68	23.17	69.63	-0.00	0.0618	10.68	469.7	377.70	0.0747	630.6	11.350	22.31	13.50	1.51
	93.62	23.15	69.60	-0.00	0.0618	10.67	469.5	377.63	0.0744	626.8	11.283	22.19	13.41	1.51
	94.60	23.17	69.58	0.00	0.0617	10.66	469.0	377.42	0.0745	627.5	11.295	22.22	13.43	1.51
	95.61	23.19	69.63	-0.00	0.0616	10.64	468.2	376.51	0.0744	625.9	11.267	22.15	13.39	1.51
	96.60	23.19	69.60	0.00	0.0616	10.63	467.9	376.42	0.0744	626.1	11.270	22.16	13.40	1.51
	97.67	23.19	69.60	0.00	0.0617	10.65	468.5	376.88	0.0740	621.1	11.180	21.98	13.27	1.51
	98.61	23.21	69.60	-0.00	0.0616	10.65	468.5	376.90	0.0738	618.5	11.133	21.89	13.21	1.51
	99.61	23.19	69.63	0.00	0.0618	10.67	469.3	377.40	0.0746	629.1	11.324	22.26	13.47	1.51
	100.59	23.21	69.60	0.00	0.0618	10.69	470.3	378.36	0.0748	629.9	11.338	22.30	13.49	1.51
	101.60	23.21	69.60	0.00	0.0616	10.65	468.8	377.17	0.0748	632.0	11.376	22.37	13.54	1.51
	102.59	23.21	69.63	0.00	0.0616	10.63	467.9	376.32	0.0754	637.2	11.469	22.55	13.67	1.51
	103.63	23.20	69.61	-0.00	0.0616	10.63	467.7	376.23	0.0754	637.8	11.480	22.58	13.68	1.51
	104.61	23.23	69.63	-0.00	0.0616	10.62	467.5	375.99	0.0756	640.9	11.536	22.68	13.76	1.51
	105.63	23.21	69.60	-0.00	0.0616	10.63	467.5	376.14	0.0754	637.9	11.483	22.58	13.69	1.51
	106.60	23.21	69.60	0.00	0.0616	10.62	467.5	376.12	0.0750	633.4	11.401	22.42	13.58	1.51
	107.61	23.21	69.60	-0.00	0.0617	10.65	468.7	377.05	0.0756	640.3	11.525	22.67	13.74	1.51
	108.61	23.22	69.63	-0.00	0.0617	10.65	468.6	376.86	0.0755	638.0	11.484	22.58	13.69	1.51
	109.61	23.22	69.66	-0.00	0.0616	10.62	467.5	375.81	0.0752	634.7	11.424	22.45	13.61	1.51
	110.61	23.22	69.60	0.00	0.0619	10.61	466.8	375.59	0.0752	631.2	11.362	22.35	13.52	1.51
	111.60	23.20	69.60	0.00	0.0609	10.43	459.1	369.32	0.0762	650.3	11.705	23.02	13.98	1.51
	112.62	23.22	69.58	0.00	0.0615	10.61	466.8	375.71	0.0761	645.6	11.621	22.86	13.87	1.51
	113.60	23.22	69.60	0.00	0.0616	10.65	468.5	376.96	0.0762	650.2	11.703	23.02	13.98	1.51
	114.60	23.24	69.63	0.00	0.0616	10.62	467.3	375.89	0.0763	651.3	11.724	23.05	14.01	1.51
	115.60	23.24	69.60	0.00	0.0614	10.59	466.0	374.95	0.0763	648.7	11.677	22.97	13.94	1.51
	116.60	23.24	69.60	0.00	0.0615	10.60	466.6	375.45	0.0766	653.3	11.760	23.13	14.05	1.51
	117.61	23.24	69.63	0.00	0.0615	10.60	466.6	375.25	0.0770	659.2	11.866	23.33	14.19	1.51
	118.59	23.26	69.63	0.00	0.0615	10.62	467.1	375.71	0.0770	659.4	11.870	23.34	14.20	1.51
	119.61	23.24	69.63	0.00	0.0614	10.60	466.4	375.11	0.0772	660.7	11.892	23.38	14.23	1.51
	120.61	23.24	69.63	-0.00	0.0614	10.58	465.5	374.44	0.0772	661.6	11.909	23.41	14.25	1.51
	121.60	23.26	69.60	-0.00	0.0614	10.58	465.3	374.41	0.0773	662.3	11.921	23.45	14.27	1.51
	122.59	23.22	69.58	0.00	0.0613	10.56	464.7	374.02	0.0776	664.6	11.962	23.53	14.32	1.51
	123.62	23.26	69.63	-0.00	0.0614	10.59	466.0	374.83	0.0777	667.4	12.014	23.62	14.38	1.51
	124.58	23.26	69.60	0.00	0.0615	10.62	467.1	375.87	0.0776	664.8	11.967	23.54	14.32	1.51
	125.61	23.26	69.61	0.00	0.0613	10.57	464.9	374.10	0.0771	661.4	11.906	23.42	14.24	1.51
	126.61	23.26	69.60	-0.00	0.0613	10.56	464.5	373.80	0.0774	661.4	11.905	23.42	14.24	1.51
