Jul 27 2015 at 14:04:15
Frequency: 1.00Hz.
CO2
Zero:  Value:0.95  Date:18 Mar 2005	 at 07:22:33	
Span:  Value:1.00  Date:18 Mar 2005	 at 07:25:09	
H2O
Zero:  Value:0.71  Date:18 Mar 2005	 at 07:52:31	
Span:  Value:0.99  Date:18 Mar 2005	 at 11:44:01	
	Relative Time	Temperature	Pressure	Aux Input	CO2 Absorptance	CO2 mmol/m3	CO2 mg/m3	CO2 umol/mol	H2O Absorptance	H2O mmol/m3	H2O g/m3	H2O mmol/mol	H2O(°C)	Cooler Voltage
	1.04	29.43	67.86	-0.00	0.0618	10.76	473.3	398.82	0.0573	434.4	7.819	16.10	8.22	1.57
	1.98	29.45	67.86	-0.00	0.0621	10.80	475.1	400.31	0.0563	428.5	7.712	15.89	8.01	1.57
	2.98	29.49	67.88	-0.00	0.0622	10.85	477.3	402.08	0.0557	418.7	7.537	15.52	7.68	1.57
	3.98	29.49	67.85	0.00	0.0622	10.86	477.7	402.60	0.0553	413.0	7.435	15.32	7.48	1.57
	4.96	29.45	67.83	0.00	0.0621	10.83	476.7	401.82	0.0559	415.7	7.483	15.42	7.57	1.57
	5.97	29.50	67.86	0.00	0.0619	10.80	475.2	400.48	0.0557	416.7	7.500	15.45	7.61	1.57
	6.96	29.45	67.86	0.00	0.0620	10.80	475.1	400.28	0.0563	422.1	7.597	15.65	7.79	1.57
	7.97	29.41	67.86	-0.00	0.0619	10.80	475.0	400.20	0.0562	422.2	7.600	15.65	7.80	1.57
	8.97	29.45	67.84	-0.00	0.0619	10.78	474.4	399.83	0.0563	421.6	7.589	15.64	7.78	1.57
	9.97	29.43	67.86	-0.00	0.0619	10.77	474.0	399.32	0.0563	423.4	7.621	15.70	7.84	1.57
	10.97	29.43	67.86	0.00	0.0620	10.79	474.8	400.03	0.0564	423.4	7.621	15.69	7.84	1.57
	11.95	29.43	67.86	0.00	0.0621	10.81	475.5	400.65	0.0564	423.6	7.624	15.70	7.84	1.57
	12.98	29.40	67.86	0.00	0.0621	10.81	475.8	400.85	0.0568	427.9	7.702	15.86	7.99	1.57
	13.98	29.45	67.88	-0.00	0.0619	10.78	474.4	399.59	0.0588	440.5	7.928	16.32	8.42	1.57
	14.98	29.38	67.86	0.00	0.0618	10.76	473.5	398.92	0.0589	450.6	8.111	16.70	8.75	1.57
	15.97	29.38	67.86	0.00	0.0617	10.74	472.5	398.07	0.0600	458.9	8.260	17.01	9.02	1.57
	16.99	29.41	67.88	0.00	0.0617	10.75	472.9	398.29	0.0597	458.8	8.259	17.00	9.02	1.57
	17.97	29.41	67.86	0.00	0.0616	10.73	472.3	397.92	0.0586	447.7	8.059	16.60	8.66	1.57
	18.97	29.37	67.86	0.00	0.0615	10.66	468.9	394.97	0.0607	476.4	8.576	17.66	9.58	1.57
	19.98	29.43	67.86	-0.00	0.0614	10.65	468.5	394.75	0.0600	462.6	8.327	17.15	9.15	1.57
	20.95	29.39	67.88	0.00	0.0613	10.65	468.6	394.63	0.0600	467.2	8.409	17.31	9.29	1.57
	21.98	29.37	67.83	-0.00	0.0614	10.66	469.2	395.42	0.0592	462.7	8.329	17.16	9.15	1.57
	22.96	29.37	67.88	-0.00	0.0612	10.64	468.3	394.33	0.0607	464.5	8.361	17.21	9.20	1.57
	23.96	29.31	67.84	0.00	0.0610	10.57	465.2	391.95	0.0620	488.8	8.798	18.12	9.96	1.57
	24.96	29.31	67.86	-0.00	0.0608	10.54	464.0	390.77	0.0632	497.9	8.963	18.45	10.24	1.57
	25.96	29.35	67.86	0.00	0.0606	10.48	461.3	388.55	0.0626	497.5	8.956	18.44	10.23	1.57
	26.96	29.31	67.88	0.00	0.0606	10.48	461.1	388.22	0.0634	505.9	9.105	18.74	10.47	1.57
	27.97	29.33	67.85	0.00	0.0605	10.47	460.8	388.10	0.0626	497.1	8.948	18.42	10.21	1.57
	28.95	29.34	67.86	0.00	0.0603	10.45	459.8	387.31	0.0641	490.3	8.826	18.17	10.01	1.57
	29.97	29.37	67.86	0.00	0.0603	10.40	457.8	385.62	0.0642	513.3	9.239	19.03	10.69	1.57
	30.97	29.37	67.86	0.00	0.0601	10.38	456.8	384.77	0.0640	508.7	9.157	18.86	10.56	1.57
	31.96	29.39	67.86	0.00	0.0599	10.37	456.3	384.44	0.0644	511.3	9.203	18.95	10.64	1.57
	32.98	29.41	67.88	-0.00	0.0604	10.41	458.3	385.95	0.0635	505.5	9.098	18.73	10.47	1.57
	33.98	29.37	67.88	-0.00	0.0606	10.47	460.9	388.10	0.0625	492.1	8.858	18.23	10.06	1.57
	34.96	29.38	67.86	-0.00	0.0603	10.41	458.1	385.94	0.0638	508.5	9.152	18.85	10.55	1.57
	35.97	29.40	67.83	-0.00	0.0599	10.47	460.8	388.33	0.0662	500.8	9.014	18.57	10.33	1.57
	36.99	29.41	67.86	-0.00	0.0594	10.21	449.4	378.60	0.0683	556.2	10.012	20.62	11.91	1.57
	37.99	29.43	67.88	-0.00	0.0592	10.19	448.3	377.59	0.0686	560.4	10.087	20.77	12.02	1.57
	38.97	29.40	67.86	0.00	0.0594	10.21	449.4	378.60	0.0672	548.6	9.876	20.34	11.70	1.57
	39.97	29.43	67.88	-0.00	0.0596	10.25	451.0	379.89	0.0663	538.2	9.688	19.95	11.41	1.57
	40.97	29.43	67.85	0.00	0.0597	10.26	451.6	380.51	0.0659	534.3	9.618	19.81	11.30	1.57
	41.96	29.44	67.86	0.00	0.0596	10.29	452.5	381.30	0.0648	516.0	9.288	19.13	10.78	1.57
	42.98	29.45	67.86	-0.00	0.0596	10.25	451.1	380.12	0.0659	539.8	9.717	20.01	11.46	1.57
	43.96	29.46	67.86	0.00	0.0597	10.29	452.7	381.44	0.0667	532.1	9.578	19.73	11.24	1.57
	44.98	29.46	67.86	-0.00	0.0591	10.20	448.7	378.08	0.0680	547.1	9.848	20.29	11.66	1.57
	45.96	29.46	67.86	0.00	0.0590	10.12	445.4	375.30	0.0677	551.6	9.929	20.45	11.79	1.57
	46.96	29.48	67.88	-0.00	0.0590	10.15	446.4	376.08	0.0679	551.8	9.932	20.45	11.79	1.57
	47.97	29.44	67.89	-0.00	0.0591	10.15	446.6	376.17	0.0675	548.6	9.875	20.33	11.70	1.57
	48.95	29.41	67.88	0.00	0.0585	10.05	442.1	372.31	0.0712	592.3	10.661	21.95	12.86	1.57
	50.05	29.41	67.88	0.00	0.0587	10.07	443.0	373.10	0.0701	578.7	10.416	21.44	12.51	1.57
	50.97	29.40	67.86	0.00	0.0588	10.07	443.1	373.32	0.0697	583.6	10.505	21.63	12.64	1.57
	51.98	29.37	67.86	0.00	0.0587	10.06	442.5	372.78	0.0705	581.0	10.458	21.53	12.57	1.57
	52.96	29.39	67.86	0.00	0.0593	10.24	450.4	379.45	0.0678	542.6	9.766	20.11	11.53	1.57
	53.98	29.43	67.88	0.00	0.0591	10.22	449.6	378.68	0.0689	548.8	9.878	20.34	11.71	1.57
	54.96	29.41	67.88	0.00	0.0589	10.13	445.6	375.27	0.0697	569.0	10.242	21.09	12.25	1.57
	55.96	29.38	67.86	0.00	0.0590	10.17	447.3	376.79	0.0686	560.7	10.092	20.78	12.03	1.57
	56.97	29.43	67.86	0.00	0.0585	10.04	441.9	372.35	0.0713	586.3	10.554	21.74	12.71	1.57
	57.95	29.40	67.86	0.00	0.0586	10.03	441.2	371.67	0.0717	604.7	10.885	22.42	13.18	1.57
	58.97	29.39	67.86	0.00	0.0583	10.01	440.3	370.89	0.0716	601.2	10.821	22.28	13.09	1.57
	59.95	29.36	67.86	0.00	0.0584	10.02	441.1	371.56	0.0713	590.9	10.636	21.90	12.83	1.57
	60.98	29.37	67.83	-0.00	0.0584	10.02	440.8	371.43	0.0704	581.9	10.474	21.58	12.59	1.57
	61.95	29.37	67.86	0.00	0.0586	9.88	434.6	366.12	0.0700	609.1	10.963	22.58	13.29	1.57
	62.96	29.37	67.88	0.00	0.0587	10.04	441.9	372.14	0.0699	580.3	10.445	21.50	12.55	1.57
	63.96	29.35	67.86	-0.00	0.0583	10.00	440.1	370.65	0.0720	601.2	10.822	22.28	13.09	1.57
	64.97	29.37	67.88	-0.00	0.0580	9.98	439.3	369.94	0.0719	593.0	10.674	21.97	12.88	1.57
	65.97	29.42	67.88	-0.00	0.0576	9.84	433.1	364.76	0.0735	611.4	11.006	22.66	13.35	1.57
	66.95	29.35	67.88	0.00	0.0589	10.16	446.9	376.34	0.0696	563.6	10.145	20.88	12.11	1.57
	67.97	29.39	67.88	0.00	0.0589	9.97	438.7	369.43	0.0690	601.4	10.825	22.28	13.10	1.57
	68.97	29.34	67.86	0.00	0.0584	10.02	440.7	371.21	0.0717	601.3	10.823	22.28	13.09	1.57
	69.97	29.35	67.83	0.00	0.0585	9.94	437.3	368.48	0.0719	623.0	11.213	23.10	13.64	1.57
	70.97	29.34	67.86	-0.00	0.0583	9.99	439.6	370.25	0.0720	599.9	10.798	22.23	13.06	1.57
	71.96	29.42	67.88	0.00	0.0578	9.87	434.2	365.65	0.0742	623.5	11.222	23.10	13.65	1.57
	73.04	29.33	67.83	-0.00	0.0579	9.91	436.1	367.45	0.0744	629.9	11.338	23.35	13.80	1.57
	73.97	29.35	67.88	-0.00	0.0578	9.87	434.4	365.73	0.0742	633.6	11.404	23.47	13.89	1.57
	74.96	29.35	67.86	0.00	0.0581	9.91	436.2	367.42	0.0728	613.7	11.046	22.74	13.40	1.57
	75.96	29.37	67.86	0.00	0.0591	10.16	447.1	376.59	0.0693	571.4	10.286	21.18	12.32	1.57
	76.97	29.37	67.83	-0.00	0.0590	10.16	446.9	376.63	0.0691	563.0	10.134	20.88	12.09	1.57
	77.95	29.34	67.83	-0.00	0.0589	10.11	444.8	374.77	0.0696	578.4	10.411	21.45	12.50	1.58
	78.97	29.35	67.86	-0.00	0.0584	10.01	440.5	371.06	0.0721	599.3	10.787	22.21	13.04	1.57
	79.97	29.37	67.86	0.00	0.0587	9.95	437.9	368.87	0.0712	618.1	11.125	22.91	13.51	1.57
	80.98	29.37	67.84	0.00	0.0584	10.03	441.3	371.89	0.0721	598.9	10.781	22.21	13.03	1.57
	81.96	29.37	67.85	0.00	0.0575	9.84	432.8	364.59	0.0763	647.5	11.655	24.00	14.23	1.57
	82.98	29.39	67.86	-0.00	0.0578	9.88	434.7	366.17	0.0749	640.1	11.522	23.73	14.06	1.57
	83.96	29.43	67.85	0.00	0.0572	9.77	429.8	362.14	0.0765	656.7	11.821	24.35	14.45	1.58
	84.96	29.43	67.86	0.00	0.0573	9.73	428.2	360.78	0.0765	666.4	11.995	24.70	14.68	1.58
	85.97	29.39	67.88	0.00	0.0574	9.79	430.8	362.81	0.0761	654.2	11.776	24.24	14.39	1.58
	86.97	29.37	67.86	-0.00	0.0575	9.79	430.9	363.01	0.0753	651.6	11.728	24.15	14.33	1.57
	87.97	29.31	67.86	-0.00	0.0582	9.89	435.2	366.57	0.0731	634.1	11.414	23.50	13.91	1.57
	88.97	29.29	67.86	-0.00	0.0599	10.13	445.7	375.35	0.0665	585.7	10.542	21.70	12.69	1.58
	89.97	29.34	67.86	0.00	0.0582	10.00	439.9	370.53	0.0733	613.2	11.038	22.73	13.39	1.58
	90.96	29.31	67.86	-0.00	0.0588	10.08	443.7	373.72	0.0713	600.2	10.803	22.24	13.06	1.58
	91.96	29.30	67.88	0.00	0.0588	10.05	442.0	372.14	0.0710	607.3	10.931	22.50	13.24	1.58
	93.02	29.35	67.83	0.00	0.0578	9.85	433.3	365.12	0.0744	643.6	11.584	23.86	14.14	1.58
	93.96	29.37	67.86	0.00	0.0591	10.12	445.4	375.19	0.0692	577.2	10.389	21.39	12.47	1.58
	95.04	29.35	67.86	-0.00	0.0584	10.03	441.3	371.69	0.0725	600.1	10.801	22.24	13.06	1.58
	95.97	29.43	67.86	0.00	0.0579	9.92	436.6	367.87	0.0742	626.8	11.282	23.24	13.73	1.58
	96.99	29.43	67.88	-0.00	0.0563	9.63	423.9	357.06	0.0815	702.7	12.648	26.04	15.50	1.58
	97.97	29.43	67.88	-0.00	0.0576	9.84	433.0	364.67	0.0761	649.9	11.699	24.09	14.29	1.58
	98.97	29.44	67.88	0.00	0.0580	9.76	429.5	361.76	0.0741	675.4	12.157	25.03	14.89	1.58
	99.97	29.47	67.86	0.00	0.0572	9.81	431.5	363.64	0.0775	654.1	11.774	24.25	14.39	1.58
	100.95	29.46	67.86	0.00	0.0574	9.82	432.0	364.03	0.0772	656.5	11.817	24.34	14.45	1.58
	102.04	29.45	67.86	-0.00	0.0579	9.92	436.6	367.86	0.0748	632.5	11.385	23.45	13.87	1.58
	102.94	29.40	67.86	0.00	0.0574	9.79	430.7	362.81	0.0776	673.8	12.129	24.98	14.85	1.58
	103.97	29.45	67.88	0.00	0.0573	9.78	430.5	362.62	0.0775	671.9	12.094	24.90	14.81	1.58
	104.97	29.45	67.86	-0.00	0.0579	9.87	434.5	366.11	0.0749	646.3	11.633	23.96	14.21	1.58
	105.96	29.42	67.86	0.00	0.0575	9.82	431.9	363.90	0.0767	663.1	11.935	24.58	14.60	1.58
	106.97	29.43	67.86	0.00	0.0574	9.77	430.1	362.35	0.0773	674.5	12.141	25.01	14.87	1.58
	107.97	29.50	67.86	-0.00	0.0575	9.81	431.6	363.69	0.0776	672.7	12.109	24.95	14.83	1.58
	108.97	29.47	67.85	-0.00	0.0573	9.76	429.5	361.91	0.0779	681.8	12.273	25.28	15.04	1.58
	109.95	29.45	67.83	0.00	0.0573	9.77	429.7	362.24	0.0774	672.3	12.102	24.94	14.82	1.58
	110.96	29.47	67.86	0.00	0.0568	9.66	425.3	358.35	0.0791	692.3	12.461	25.67	15.27	1.58
	111.98	29.49	67.86	0.00	0.0561	9.48	417.3	351.63	0.0800	705.5	12.699	26.16	15.57	1.58
	112.98	29.49	67.86	-0.00	0.0561	9.48	417.1	351.48	0.0795	702.6	12.647	26.05	15.51	1.58
	113.96	29.46	67.88	0.00	0.0562	9.54	419.8	353.63	0.0801	719.4	12.949	26.66	15.87	1.58
	114.97	29.49	67.86	-0.00	0.0575	9.76	429.3	361.76	0.0772	682.3	12.281	25.30	15.05	1.58
	115.97	29.46	67.88	-0.00	0.0566	9.70	426.9	359.61	0.0807	708.6	12.755	26.26	15.64	1.58
	116.95	29.49	67.86	-0.00	0.0574	9.50	418.2	352.37	0.0764	730.2	13.143	27.07	16.11	1.58
	117.97	29.45	67.88	0.00	0.0563	9.44	415.4	349.88	0.0808	751.3	13.523	27.84	16.55	1.58
	119.04	29.50	67.86	-0.00	0.0567	9.60	422.5	356.05	0.0798	708.0	12.744	26.25	15.63	1.58
	119.96	29.50	67.86	0.00	0.0568	9.65	424.5	357.77	0.0794	701.2	12.622	26.00	15.48	1.58
