Jul 27 2015 at 9:18:33
Frequency: 1.00Hz.
CO2
Zero:  Value:0.95  Date:18 Mar 2005	 at 07:22:33	
Span:  Value:1.00  Date:18 Mar 2005	 at 07:25:09	
H2O
Zero:  Value:0.71  Date:18 Mar 2005	 at 07:52:31	
Span:  Value:0.99  Date:18 Mar 2005	 at 11:44:01	
	Relative Time	Temperature	Pressure	Aux Input	CO2 Absorptance	CO2 mmol/m3	CO2 mg/m3	CO2 umol/mol	H2O Absorptance	H2O mmol/m3	H2O g/m3	H2O mmol/mol	H2O(°C)	Cooler Voltage
	0.83	19.24	69.66	-0.00	0.0617	10.66	468.9	371.87	0.0733	611.7	11.010	21.35	12.83	1.46
	1.81	19.25	69.66	-0.00	0.0618	10.67	469.4	372.34	0.0735	615.7	11.082	21.49	12.93	1.46
	2.81	19.25	69.63	-0.00	0.0619	10.67	469.4	372.45	0.0733	613.8	11.048	21.43	12.89	1.46
	3.81	19.25	69.66	0.00	0.0619	10.71	471.0	373.62	0.0732	606.7	10.921	21.17	12.71	1.46
	4.82	19.26	69.63	-0.00	0.0619	10.69	470.2	373.08	0.0733	613.4	11.041	21.41	12.88	1.46
	5.82	19.26	69.66	-0.00	0.0620	10.71	471.3	373.86	0.0727	605.0	10.890	21.12	12.67	1.46
	6.83	19.26	69.66	-0.00	0.0620	10.72	471.9	374.31	0.0727	605.5	10.898	21.13	12.68	1.46
	7.83	19.26	69.66	-0.00	0.0621	10.73	472.3	374.63	0.0727	604.8	10.887	21.11	12.66	1.46
	8.83	19.26	69.66	-0.00	0.0620	10.71	471.4	373.91	0.0725	600.9	10.816	20.97	12.56	1.46
	9.83	19.24	69.63	0.00	0.0619	10.71	471.3	373.96	0.0726	603.5	10.863	21.07	12.63	1.46
	10.81	19.28	69.66	0.00	0.0619	10.71	471.2	373.76	0.0726	604.1	10.875	21.09	12.65	1.46
	11.82	19.26	69.68	0.00	0.0619	10.70	470.9	373.37	0.0723	599.6	10.793	20.92	12.53	1.46
	12.81	19.28	69.66	0.00	0.0618	10.67	469.6	372.53	0.0728	604.4	10.880	21.10	12.65	1.46
	13.81	19.28	69.66	0.00	0.0614	10.58	465.4	369.19	0.0733	611.2	11.002	21.33	12.82	1.46
	14.84	19.28	69.66	-0.00	0.0615	10.60	466.4	369.97	0.0733	611.4	11.005	21.34	12.83	1.46
	15.82	19.28	69.68	-0.00	0.0615	10.60	466.6	370.00	0.0732	611.3	11.004	21.33	12.83	1.46
	16.83	19.28	69.66	-0.00	0.0615	10.62	467.2	370.64	0.0733	611.5	11.008	21.35	12.83	1.46
	17.80	19.30	69.66	0.00	0.0615	10.61	466.9	370.39	0.0736	615.9	11.086	21.50	12.94	1.46
	18.83	19.28	69.66	0.00	0.0614	10.59	465.8	369.48	0.0735	614.7	11.064	21.45	12.91	1.46
	19.89	19.28	69.66	-0.00	0.0614	10.59	466.1	369.77	0.0735	614.3	11.058	21.44	12.90	1.46
	20.83	19.31	69.63	-0.00	0.0613	10.58	465.6	369.49	0.0736	615.7	11.083	21.50	12.94	1.46
	21.81	19.28	69.66	0.00	0.0613	10.56	464.5	368.46	0.0739	620.2	11.163	21.65	13.05	1.46
	22.82	19.31	69.63	0.00	0.0612	10.55	464.4	368.51	0.0739	618.8	11.139	21.61	13.02	1.46
	23.84	19.33	69.63	-0.00	0.0611	10.53	463.5	367.85	0.0743	623.3	11.220	21.77	13.13	1.46
	24.82	19.33	69.63	0.00	0.0607	10.43	459.1	364.39	0.0747	629.4	11.328	21.98	13.28	1.46
	25.82	19.33	69.66	0.00	0.0611	10.51	462.6	367.04	0.0745	627.4	11.293	21.90	13.23	1.46
	26.82	19.31	69.66	0.00	0.0610	10.51	462.5	366.90	0.0744	626.1	11.269	21.85	13.19	1.46
	27.83	19.33	69.66	-0.00	0.0609	10.49	461.6	366.28	0.0745	626.9	11.284	21.88	13.21	1.46
	28.81	19.35	69.66	0.00	0.0608	10.47	460.5	365.37	0.0755	637.9	11.482	22.27	13.48	1.46
	29.81	19.34	69.66	0.00	0.0608	10.46	460.4	365.30	0.0757	641.9	11.554	22.41	13.58	1.46
	30.82	19.34	69.68	-0.00	0.0607	10.43	459.1	364.10	0.0763	647.9	11.662	22.61	13.72	1.46
	31.82	19.33	69.66	0.00	0.0606	10.41	458.0	363.40	0.0762	648.8	11.678	22.65	13.74	1.46
	32.82	19.33	69.66	0.00	0.0605	10.40	457.5	362.95	0.0761	647.2	11.650	22.59	13.70	1.46
	33.80	19.38	69.66	0.00	0.0605	10.39	457.2	362.76	0.0754	638.6	11.494	22.30	13.50	1.46
	34.88	19.35	69.63	0.00	0.0598	10.22	449.8	357.03	0.0770	659.2	11.865	23.02	13.99	1.46
	35.80	19.36	69.63	0.00	0.0599	10.21	449.3	356.60	0.0765	657.7	11.839	22.97	13.95	1.47
	36.80	19.36	69.66	0.00	0.0603	10.35	455.2	361.20	0.0760	643.9	11.591	22.48	13.63	1.46
	37.80	19.36	69.63	0.00	0.0600	10.24	450.7	357.74	0.0772	662.0	11.916	23.12	14.05	1.46
	38.83	19.36	69.63	0.00	0.0600	10.29	452.6	359.28	0.0771	658.1	11.847	22.99	13.96	1.46
	39.81	19.36	69.68	0.00	0.0592	10.07	443.2	351.55	0.0785	680.4	12.247	23.75	14.48	1.46
	40.81	19.38	69.63	0.00	0.0592	10.15	446.6	354.52	0.0783	672.0	12.096	23.47	14.29	1.47
	41.81	19.36	69.66	0.00	0.0592	10.09	444.0	352.27	0.0781	674.7	12.144	23.56	14.35	1.47
	42.82	19.36	69.66	-0.00	0.0592	10.09	444.1	352.41	0.0783	675.0	12.150	23.57	14.35	1.46
	43.82	19.40	69.63	0.00	0.0596	10.16	447.3	355.06	0.0772	664.5	11.960	23.21	14.11	1.47
	44.80	19.38	69.66	0.00	0.0595	10.21	449.2	356.42	0.0773	658.4	11.850	22.99	13.97	1.47
	45.82	19.38	69.63	0.00	0.0589	10.04	441.6	350.55	0.0788	681.5	12.267	23.81	14.50	1.47
	46.80	19.36	69.66	0.00	0.0595	10.17	447.4	355.00	0.0782	674.3	12.137	23.54	14.34	1.47
	47.83	19.40	69.66	-0.00	0.0599	10.24	450.7	357.68	0.0778	668.7	12.036	23.35	14.21	1.47
	48.83	19.38	69.68	-0.00	0.0600	10.27	451.7	358.30	0.0775	666.6	12.000	23.27	14.16	1.47
	49.81	19.40	69.66	0.00	0.0598	10.25	450.8	357.77	0.0775	665.3	11.976	23.23	14.13	1.47
	50.81	19.40	69.68	0.00	0.0593	10.13	445.8	353.63	0.0786	676.6	12.180	23.62	14.39	1.47
	51.90	19.38	69.66	-0.00	0.0591	10.11	445.0	353.09	0.0793	686.4	12.355	23.96	14.61	1.47
	52.81	19.43	69.66	0.00	0.0598	10.23	450.2	357.34	0.0772	663.1	11.935	23.15	14.08	1.47
	53.82	19.41	69.66	-0.00	0.0596	10.19	448.4	355.88	0.0780	668.8	12.038	23.35	14.21	1.47
	54.83	19.39	69.63	0.00	0.0599	10.26	451.3	358.30	0.0771	660.8	11.894	23.08	14.03	1.47
	55.82	19.41	69.66	0.00	0.0600	10.29	452.7	359.30	0.0770	656.8	11.823	22.94	13.94	1.47
	56.83	19.41	69.63	-0.00	0.0593	10.19	448.4	355.98	0.0787	676.5	12.178	23.63	14.39	1.47
	57.81	19.43	69.66	0.00	0.0594	10.14	446.1	354.07	0.0783	677.1	12.188	23.65	14.41	1.47
	58.81	19.43	69.66	0.00	0.0596	10.20	448.8	356.22	0.0778	667.9	12.022	23.32	14.19	1.47
	59.83	19.43	69.61	-0.00	0.0589	10.06	442.8	351.71	0.0793	685.5	12.340	23.96	14.60	1.47
	60.81	19.41	69.66	-0.00	0.0589	10.03	441.4	350.30	0.0797	693.1	12.475	24.20	14.77	1.47
	61.87	19.44	69.66	0.00	0.0587	10.02	440.8	349.84	0.0806	703.3	12.659	24.56	15.00	1.47
	62.82	19.41	69.66	0.00	0.0589	10.01	440.3	349.44	0.0798	700.0	12.600	24.44	14.92	1.47
	63.82	19.44	69.63	0.00	0.0593	10.14	446.4	354.40	0.0789	678.9	12.221	23.72	14.45	1.47
	64.80	19.44	69.66	0.00	0.0586	10.02	440.8	349.88	0.0803	698.3	12.569	24.39	14.88	1.47
	65.82	19.45	69.63	-0.00	0.0581	9.87	434.4	344.88	0.0812	714.4	12.859	24.96	15.24	1.47
	66.81	19.46	69.66	0.00	0.0589	10.05	442.3	351.11	0.0794	689.4	12.410	24.08	14.69	1.47
	67.83	19.46	69.66	0.00	0.0586	9.99	439.6	348.98	0.0799	694.4	12.499	24.25	14.80	1.47
	68.81	19.46	69.66	0.00	0.0588	9.97	438.5	348.04	0.0795	698.4	12.571	24.39	14.89	1.47
	69.83	19.45	69.66	-0.00	0.0590	10.08	443.4	351.94	0.0790	682.5	12.285	23.84	14.53	1.47
	70.82	19.48	69.66	-0.00	0.0590	10.06	442.8	351.48	0.0790	684.9	12.329	23.92	14.59	1.47
	71.81	19.46	69.66	0.00	0.0587	10.02	440.9	349.99	0.0798	691.0	12.438	24.13	14.72	1.47
	72.82	19.46	69.63	-0.00	0.0585	9.96	438.3	348.01	0.0802	699.6	12.593	24.44	14.92	1.47
	73.82	19.46	69.63	0.00	0.0584	9.93	437.1	347.09	0.0806	706.0	12.708	24.67	15.06	1.47
	74.90	19.44	69.66	0.00	0.0588	10.00	439.8	349.06	0.0802	699.4	12.589	24.42	14.91	1.47
	75.82	19.46	69.66	0.00	0.0586	9.98	439.1	348.55	0.0808	707.3	12.731	24.70	15.08	1.47
	76.81	19.48	69.66	0.00	0.0580	9.86	433.7	344.29	0.0815	717.9	12.923	25.08	15.32	1.47
	77.80	19.48	69.66	0.00	0.0580	9.85	433.3	343.93	0.0816	719.0	12.943	25.11	15.34	1.47
	78.81	19.48	69.66	0.00	0.0584	9.93	436.7	346.68	0.0811	714.2	12.855	24.94	15.24	1.47
	79.83	19.48	69.66	0.00	0.0585	9.92	436.5	346.48	0.0814	719.3	12.948	25.12	15.35	1.47
	80.81	19.48	69.66	0.00	0.0585	9.93	437.1	346.95	0.0812	713.4	12.841	24.92	15.22	1.47
	81.82	19.48	69.66	-0.00	0.0583	9.93	436.7	346.68	0.0819	722.3	13.002	25.23	15.41	1.47
	82.81	19.49	69.66	-0.00	0.0584	9.93	436.8	346.78	0.0816	719.3	12.947	25.12	15.35	1.47
	83.82	19.50	69.63	-0.00	0.0586	9.97	438.5	348.22	0.0806	705.6	12.701	24.66	15.05	1.47
	84.89	19.48	69.66	-0.00	0.0586	9.97	438.9	348.39	0.0802	701.8	12.632	24.51	14.96	1.48
	85.82	19.51	69.66	0.00	0.0586	9.97	438.8	348.35	0.0810	710.4	12.788	24.82	15.16	1.47
	86.81	19.51	69.66	0.00	0.0588	10.01	440.4	349.67	0.0814	716.3	12.894	25.02	15.28	1.47
	87.81	19.53	69.66	0.00	0.0584	9.95	438.0	347.76	0.0821	723.7	13.027	25.28	15.45	1.47
	88.89	19.50	69.66	0.00	0.0582	9.85	433.6	344.19	0.0826	735.2	13.234	25.68	15.69	1.47
	89.81	19.53	69.66	0.00	0.0585	9.97	438.7	348.33	0.0817	720.7	12.972	25.18	15.38	1.48
	90.89	19.53	69.66	0.00	0.0583	9.90	435.4	345.71	0.0826	733.1	13.195	25.61	15.65	1.48
	91.81	19.53	69.66	0.00	0.0584	9.93	437.1	347.02	0.0826	732.5	13.186	25.59	15.63	1.48
	92.82	19.53	69.63	0.00	0.0584	9.94	437.3	347.28	0.0821	728.2	13.107	25.45	15.54	1.47
	93.82	19.55	69.63	0.00	0.0578	9.80	431.3	342.57	0.0839	747.6	13.457	26.13	15.95	1.47
	94.82	19.53	69.66	-0.00	0.0581	9.90	435.4	345.73	0.0835	739.4	13.309	25.83	15.78	1.48
	95.83	19.55	69.66	-0.00	0.0577	9.76	429.5	340.98	0.0839	754.2	13.575	26.35	16.09	1.48
	96.81	19.51	69.66	-0.00	0.0584	9.92	436.4	346.46	0.0818	726.3	13.073	25.37	15.50	1.48
	97.83	19.55	69.66	-0.00	0.0585	9.95	437.6	347.49	0.0812	715.0	12.870	24.98	15.26	1.48
	98.81	19.55	69.66	-0.00	0.0588	10.04	441.7	350.70	0.0812	711.8	12.813	24.87	15.19	1.48
	99.81	19.55	69.66	0.00	0.0587	10.00	440.2	349.52	0.0816	719.8	12.956	25.14	15.36	1.48
	100.82	19.55	69.66	-0.00	0.0589	10.03	441.2	350.28	0.0811	713.2	12.837	24.91	15.22	1.48
	101.82	19.53	69.66	0.00	0.0590	10.05	442.2	351.05	0.0807	705.1	12.692	24.63	15.04	1.48
	102.80	19.54	69.66	0.00	0.0588	10.01	440.5	349.76	0.0809	710.5	12.790	24.82	15.16	1.48
	103.82	19.56	69.66	0.00	0.0584	9.94	437.5	347.35	0.0816	714.7	12.865	24.97	15.25	1.48
	104.82	19.56	69.63	-0.00	0.0581	9.87	434.1	344.85	0.0832	737.9	13.283	25.79	15.75	1.48
	105.81	19.54	69.68	-0.00	0.0582	9.86	433.8	344.29	0.0828	739.8	13.317	25.84	15.79	1.48
	106.81	19.56	69.66	-0.00	0.0587	9.99	439.7	349.12	0.0812	715.4	12.877	24.99	15.27	1.48
	107.91	19.56	69.63	-0.00	0.0586	9.98	439.1	348.78	0.0807	705.9	12.706	24.67	15.06	1.48
	108.83	19.56	69.66	-0.00	0.0586	9.98	439.0	348.58	0.0811	712.0	12.816	24.87	15.19	1.48
	109.84	19.58	69.68	-0.00	0.0588	10.01	440.2	349.44	0.0810	711.3	12.804	24.84	15.18	1.48
	110.82	19.58	69.66	-0.00	0.0588	10.03	441.2	350.35	0.0806	706.5	12.717	24.69	15.07	1.48
	111.84	19.58	69.66	-0.00	0.0588	10.02	441.0	350.18	0.0807	705.3	12.696	24.64	15.05	1.48
	112.80	19.58	69.66	0.00	0.0587	10.01	440.3	349.64	0.0807	705.4	12.698	24.65	15.05	1.48
	113.82	19.58	69.63	0.00	0.0586	9.99	439.5	349.11	0.0811	710.1	12.781	24.82	15.15	1.48
	114.82	19.60	69.66	0.00	0.0587	10.00	439.9	349.33	0.0813	712.2	12.819	24.88	15.20	1.48
	115.81	19.59	69.66	0.00	0.0585	9.98	439.1	348.68	0.0818	717.4	12.913	25.07	15.31	1.48
	116.81	19.60	69.68	0.00	0.0583	9.92	436.6	346.60	0.0824	727.0	13.086	25.39	15.52	1.48
	117.81	19.60	69.66	0.00	0.0580	9.85	433.5	344.22	0.0836	745.4	13.418	26.05	15.91	1.48
	118.81	19.61	69.66	0.00	0.0584	9.94	437.3	347.27	0.0826	732.4	13.183	25.59	15.64	1.48
