Jul 28 2015 at 9:50:41
Frequency: 1.00Hz.
CO2
Zero:  Value:0.95  Date:18 Mar 2005	 at 07:22:33	
Span:  Value:1.00  Date:18 Mar 2005	 at 07:25:09	
H2O
Zero:  Value:0.71  Date:18 Mar 2005	 at 07:52:31	
Span:  Value:0.99  Date:18 Mar 2005	 at 11:44:01	
	Relative Time	Temperature	Pressure	Aux Input	CO2 Absorptance	CO2 mmol/m3	CO2 mg/m3	CO2 umol/mol	H2O Absorptance	H2O mmol/m3	H2O g/m3	H2O mmol/mol	H2O(°C)	Cooler Voltage
	0.94	17.59	67.65	0.00	0.0614	10.68	470.1	381.77	0.0499	360.3	6.485	12.87	4.92	1.51
	1.92	17.59	67.68	0.00	0.0617	10.75	473.0	383.92	0.0505	363.1	6.537	12.97	5.03	1.51
	2.93	17.59	67.60	0.00	0.0618	10.77	473.9	385.16	0.0507	364.0	6.552	13.01	5.06	1.51
	3.93	17.57	67.65	0.00	0.0616	10.74	472.5	383.70	0.0508	367.0	6.607	13.11	5.18	1.51
	4.93	17.57	67.65	0.00	0.0617	10.72	471.5	382.86	0.0514	372.5	6.705	13.31	5.40	1.51
	5.93	17.59	67.65	0.00	0.0614	10.70	470.7	382.19	0.0516	372.3	6.701	13.30	5.39	1.51
	6.93	17.59	67.65	0.00	0.0615	10.70	470.8	382.32	0.0516	374.2	6.735	13.37	5.46	1.51
	7.92	17.61	67.68	-0.00	0.0614	10.68	469.7	381.31	0.0520	380.1	6.843	13.58	5.69	1.51
	8.92	17.59	67.65	0.00	0.0614	10.66	469.2	380.99	0.0523	381.0	6.858	13.61	5.72	1.51
	9.92	17.61	67.65	-0.00	0.0614	10.66	469.2	381.05	0.0523	378.8	6.819	13.54	5.64	1.51
	10.94	17.61	67.65	0.00	0.0614	10.67	469.3	381.13	0.0522	381.9	6.874	13.65	5.76	1.51
	11.93	17.62	67.65	0.00	0.0612	10.66	468.9	380.86	0.0521	380.2	6.844	13.59	5.69	1.51
	12.95	17.61	67.63	0.00	0.0613	10.65	468.4	380.55	0.0521	379.1	6.824	13.55	5.65	1.51
	13.95	17.62	67.65	-0.00	0.0612	10.64	468.2	380.22	0.0519	378.7	6.817	13.53	5.64	1.51
	14.93	17.62	67.63	0.00	0.0613	10.64	468.0	380.17	0.0519	377.4	6.793	13.49	5.59	1.51
	15.93	17.62	67.66	-0.00	0.0612	10.64	468.3	380.29	0.0518	376.7	6.780	13.46	5.56	1.51
	16.94	17.66	67.63	-0.00	0.0611	10.63	467.7	380.02	0.0516	374.0	6.732	13.37	5.46	1.51
	17.94	17.64	67.65	-0.00	0.0612	10.63	467.7	379.90	0.0515	373.1	6.716	13.33	5.42	1.51
	18.94	17.66	67.65	0.00	0.0612	10.64	468.0	380.13	0.0515	374.1	6.734	13.37	5.46	1.51
	20.00	17.66	67.62	0.00	0.0612	10.62	467.5	379.87	0.0514	371.6	6.689	13.29	5.37	1.51
	20.92	17.66	67.63	0.00	0.0611	10.63	467.8	380.09	0.0513	372.9	6.712	13.33	5.41	1.51
	21.93	17.66	67.66	0.00	0.0612	10.63	467.8	379.93	0.0515	372.2	6.699	13.30	5.39	1.51
	22.93	17.66	67.65	-0.00	0.0611	10.63	467.5	379.74	0.0513	372.3	6.701	13.31	5.39	1.51
	23.99	17.67	67.65	0.00	0.0611	10.60	466.3	378.72	0.0522	379.8	6.837	13.57	5.68	1.51
	24.93	17.64	67.63	-0.00	0.0611	10.62	467.5	379.78	0.0518	377.7	6.799	13.50	5.60	1.51
	25.94	17.67	67.63	-0.00	0.0611	10.62	467.4	379.82	0.0518	376.5	6.777	13.46	5.55	1.51
	26.93	17.67	67.65	0.00	0.0612	10.62	467.3	379.59	0.0521	379.6	6.833	13.57	5.67	1.51
	27.95	17.67	67.65	-0.00	0.0610	10.61	466.8	379.15	0.0517	377.0	6.786	13.48	5.57	1.51
	28.92	17.67	67.65	0.00	0.0609	10.57	464.9	377.68	0.0512	371.1	6.679	13.26	5.35	1.51
	29.94	17.69	67.65	0.00	0.0612	10.61	466.8	379.23	0.0523	381.2	6.862	13.63	5.73	1.51
	30.93	17.69	67.65	-0.00	0.0611	10.61	466.9	379.24	0.0523	380.0	6.840	13.58	5.69	1.51
	31.93	17.67	67.63	0.00	0.0611	10.62	467.3	379.68	0.0525	382.7	6.888	13.68	5.79	1.51
	32.93	17.69	67.65	-0.00	0.0611	10.61	466.9	379.26	0.0527	384.9	6.928	13.76	5.87	1.51
	33.93	17.69	67.65	0.00	0.0611	10.59	466.1	378.63	0.0526	385.8	6.945	13.79	5.91	1.51
	34.93	17.69	67.60	0.00	0.0610	10.58	465.6	378.53	0.0526	386.2	6.951	13.81	5.92	1.51
	35.91	17.71	67.63	0.00	0.0610	10.59	465.8	378.55	0.0523	380.3	6.845	13.60	5.70	1.51
	36.92	17.71	67.63	0.00	0.0611	10.61	466.7	379.23	0.0530	388.6	6.994	13.89	6.01	1.51
	37.92	17.69	67.65	-0.00	0.0611	10.59	466.1	378.60	0.0525	385.4	6.937	13.77	5.89	1.51
	38.94	17.71	67.65	0.00	0.0610	10.59	466.1	378.62	0.0528	386.0	6.948	13.80	5.92	1.51
	39.94	17.74	67.65	0.00	0.0610	10.59	466.1	378.67	0.0522	380.6	6.851	13.61	5.72	1.51
	40.92	17.72	67.65	0.00	0.0611	10.60	466.2	378.73	0.0527	386.2	6.952	13.81	5.93	1.51
	41.93	17.74	67.65	0.00	0.0610	10.59	466.1	378.65	0.0525	387.4	6.973	13.85	5.97	1.51
	42.93	17.71	67.60	-0.00	0.0610	10.59	466.1	378.94	0.0523	381.9	6.875	13.66	5.76	1.51
	43.95	17.74	67.63	-0.00	0.0610	10.57	465.2	378.07	0.0526	383.0	6.894	13.70	5.81	1.51
	44.93	17.74	67.65	0.00	0.0610	10.57	465.2	377.98	0.0533	390.3	7.026	13.95	6.08	1.51
	45.93	17.74	67.63	0.00	0.0609	10.57	465.2	378.12	0.0530	390.0	7.020	13.95	6.07	1.51
	46.94	17.72	67.63	-0.00	0.0610	10.57	465.3	378.11	0.0535	390.5	7.028	13.96	6.08	1.51
	47.92	17.74	67.68	0.00	0.0609	10.57	465.2	377.79	0.0533	394.4	7.099	14.09	6.23	1.51
	48.94	17.74	67.68	-0.00	0.0609	10.57	465.1	377.73	0.0534	394.7	7.104	14.10	6.24	1.51
	49.92	17.75	67.65	0.00	0.0609	10.56	464.7	377.57	0.0536	389.1	7.005	13.91	6.04	1.51
	51.01	17.74	67.60	-0.00	0.0610	10.57	465.0	378.03	0.0537	395.7	7.123	14.16	6.28	1.51
	51.93	17.75	67.65	-0.00	0.0609	10.57	465.1	377.89	0.0538	391.0	7.038	13.98	6.10	1.51
	52.93	17.77	67.65	0.00	0.0608	10.56	464.8	377.68	0.0535	396.5	7.137	14.18	6.31	1.51
	53.95	17.75	67.65	0.00	0.0608	10.56	464.5	377.40	0.0538	397.9	7.162	14.22	6.36	1.51
	54.93	17.74	67.65	0.00	0.0609	10.56	464.5	377.40	0.0541	398.0	7.164	14.23	6.36	1.51
	55.93	17.75	67.65	-0.00	0.0609	10.56	464.6	377.47	0.0540	399.0	7.181	14.26	6.40	1.51
	56.92	17.77	67.65	0.00	0.0609	10.55	464.1	377.13	0.0541	399.1	7.183	14.27	6.40	1.51
	57.92	17.77	67.63	0.00	0.0608	10.55	464.3	377.45	0.0546	405.2	7.294	14.49	6.62	1.51
	58.92	17.75	67.65	0.00	0.0609	10.55	464.3	377.25	0.0544	403.2	7.258	14.42	6.55	1.51
	59.95	17.81	67.65	-0.00	0.0608	10.55	464.0	377.12	0.0542	401.9	7.234	14.37	6.51	1.51
	60.93	17.79	67.65	-0.00	0.0606	10.52	462.8	376.11	0.0542	400.4	7.208	14.32	6.45	1.51
	61.93	17.77	67.65	0.00	0.0608	10.54	463.8	376.84	0.0549	409.3	7.367	14.63	6.77	1.51
	62.93	17.80	67.65	-0.00	0.0608	10.53	463.4	376.62	0.0546	404.2	7.276	14.45	6.59	1.51
	63.93	17.79	67.65	0.00	0.0607	10.53	463.3	376.46	0.0550	408.4	7.351	14.60	6.74	1.51
	64.93	17.80	67.65	0.00	0.0607	10.52	462.9	376.22	0.0549	408.8	7.358	14.62	6.75	1.51
	65.91	17.80	67.65	0.00	0.0608	10.52	463.1	376.29	0.0549	411.2	7.402	14.70	6.84	1.51
	66.94	17.79	67.68	0.00	0.0607	10.52	463.1	376.15	0.0545	402.9	7.252	14.40	6.54	1.51
	67.92	17.80	67.65	0.00	0.0607	10.52	462.8	376.09	0.0548	407.6	7.337	14.58	6.71	1.51
	68.95	17.82	67.65	-0.00	0.0607	10.51	462.2	375.68	0.0556	413.2	7.437	14.77	6.91	1.51
	70.00	17.79	67.65	0.00	0.0606	10.51	462.4	375.73	0.0559	416.2	7.492	14.88	7.01	1.51
	70.92	17.82	67.63	0.00	0.0606	10.51	462.2	375.79	0.0560	419.4	7.550	15.00	7.13	1.51
	71.93	17.82	67.65	0.00	0.0606	10.50	462.0	375.49	0.0557	417.0	7.506	14.91	7.04	1.51
	72.92	17.82	67.63	0.00	0.0606	10.47	460.8	374.61	0.0559	416.6	7.499	14.90	7.03	1.51
	74.01	17.82	67.62	-0.00	0.0605	10.49	461.7	375.39	0.0560	420.3	7.565	15.03	7.16	1.51
	74.93	17.82	67.65	0.00	0.0606	10.49	461.6	375.16	0.0555	412.6	7.427	14.76	6.89	1.51
	75.93	17.82	67.65	0.00	0.0606	10.50	461.9	375.44	0.0562	422.0	7.596	15.09	7.22	1.51
	76.92	17.84	67.65	0.00	0.0606	10.50	462.1	375.56	0.0558	418.2	7.528	14.96	7.09	1.51
	77.92	17.84	67.65	0.00	0.0606	10.50	461.9	375.40	0.0563	423.1	7.615	15.13	7.26	1.51
	78.94	17.85	67.65	-0.00	0.0607	10.49	461.7	375.30	0.0562	423.2	7.617	15.13	7.26	1.51
	79.94	17.84	67.63	-0.00	0.0605	10.49	461.4	375.11	0.0563	419.2	7.546	15.00	7.12	1.51
	81.01	17.85	67.65	-0.00	0.0607	10.49	461.6	375.19	0.0566	426.7	7.680	15.26	7.38	1.51
	81.93	17.85	67.68	-0.00	0.0606	10.49	461.7	375.09	0.0566	427.6	7.697	15.29	7.41	1.51
	82.93	17.85	67.63	0.00	0.0605	10.49	461.5	375.25	0.0565	423.1	7.615	15.14	7.26	1.51
	83.93	17.85	67.67	-0.00	0.0606	10.49	461.5	375.00	0.0566	427.2	7.689	15.27	7.40	1.51
	84.93	17.87	67.67	0.00	0.0605	10.48	461.1	374.69	0.0564	423.7	7.626	15.15	7.28	1.51
	86.00	17.85	67.65	0.00	0.0606	10.50	461.8	375.34	0.0565	426.8	7.683	15.26	7.39	1.51
	86.95	17.85	67.65	-0.00	0.0606	10.50	461.8	375.33	0.0565	425.6	7.661	15.22	7.34	1.51
	87.94	17.89	67.68	-0.00	0.0606	10.49	461.8	375.20	0.0565	427.8	7.700	15.29	7.42	1.51
	88.94	17.89	67.65	-0.00	0.0605	10.48	461.3	375.00	0.0564	424.1	7.634	15.17	7.29	1.51
	89.95	17.89	67.65	-0.00	0.0606	10.48	461.2	374.89	0.0566	425.7	7.663	15.23	7.35	1.51
	90.92	17.90	67.65	0.00	0.0604	10.47	460.6	374.41	0.0565	424.9	7.649	15.20	7.32	1.51
	91.93	17.89	67.62	0.00	0.0604	10.47	460.7	374.67	0.0567	426.7	7.681	15.27	7.38	1.51
	92.91	17.92	67.65	0.00	0.0605	10.47	460.9	374.68	0.0569	428.6	7.714	15.33	7.45	1.51
	93.94	17.90	67.65	-0.00	0.0605	10.46	460.3	374.20	0.0570	430.4	7.747	15.39	7.51	1.51
	94.93	17.92	67.55	-0.00	0.0604	10.47	460.8	375.16	0.0569	428.6	7.715	15.35	7.45	1.51
	95.94	17.89	67.63	-0.00	0.0605	10.48	460.9	374.82	0.0573	433.1	7.795	15.49	7.60	1.51
	96.92	17.89	67.65	0.00	0.0604	10.46	460.4	374.24	0.0573	434.7	7.825	15.55	7.66	1.51
	97.92	17.92	67.63	0.00	0.0603	10.46	460.3	374.35	0.0571	433.1	7.796	15.50	7.60	1.51
	98.95	17.90	67.63	-0.00	0.0604	10.44	459.5	373.70	0.0568	431.7	7.770	15.45	7.55	1.52
	100.00	17.92	67.65	0.00	0.0604	10.46	460.0	373.99	0.0578	440.2	7.924	15.75	7.84	1.51
	100.93	17.92	67.68	0.00	0.0604	10.46	460.3	374.05	0.0576	436.9	7.864	15.62	7.73	1.51
	101.93	17.92	67.65	0.00	0.0605	10.46	460.4	374.30	0.0575	435.6	7.841	15.58	7.69	1.51
	102.93	17.94	67.68	0.00	0.0603	10.47	460.5	374.26	0.0573	435.6	7.841	15.58	7.69	1.51
	103.93	17.94	67.63	0.00	0.0604	10.45	459.6	373.79	0.0575	435.3	7.835	15.58	7.68	1.51
	104.94	17.92	67.65	-0.00	0.0604	10.45	459.8	373.85	0.0574	435.2	7.834	15.57	7.67	1.52
	105.92	17.94	67.68	0.00	0.0604	10.46	460.1	373.89	0.0577	440.2	7.923	15.74	7.84	1.51
	106.92	17.94	67.63	0.00	0.0604	10.46	460.2	374.31	0.0577	439.1	7.903	15.71	7.80	1.51
	107.92	17.95	67.65	0.00	0.0604	10.45	459.7	373.80	0.0573	432.3	7.781	15.46	7.58	1.51
	108.94	17.95	67.65	-0.00	0.0604	10.46	460.2	374.17	0.0575	436.1	7.850	15.60	7.70	1.51
	109.92	17.95	67.63	0.00	0.0604	10.46	460.1	374.26	0.0579	440.4	7.927	15.76	7.85	1.52
	110.92	17.94	67.65	-0.00	0.0604	10.45	459.6	373.66	0.0574	436.1	7.850	15.60	7.70	1.52
	111.93	17.97	67.65	0.00	0.0603	10.46	460.1	374.11	0.0576	438.5	7.893	15.69	7.79	1.51
	112.94	17.97	67.65	-0.00	0.0604	10.46	460.1	374.10	0.0581	441.3	7.944	15.79	7.88	1.51
	113.94	17.97	67.65	-0.00	0.0604	10.45	460.0	374.01	0.0581	442.0	7.955	15.81	7.90	1.51
	114.93	17.94	67.65	0.00	0.0604	10.45	460.0	373.98	0.0580	440.5	7.930	15.76	7.85	1.51
	115.94	17.97	67.65	-0.00	0.0605	10.45	459.9	373.97	0.0578	440.0	7.919	15.74	7.84	1.52
	116.94	17.99	67.65	-0.00	0.0603	10.45	459.6	373.74	0.0580	440.8	7.935	15.77	7.87	1.52
	117.94	18.00	67.65	0.00	0.0602	10.42	458.4	372.75	0.0582	443.6	7.984	15.87	7.96	1.52
	118.92	18.05	67.62	0.00	0.0602	10.42	458.6	373.16	0.0583	443.1	7.976	15.86	7.94	1.52
	119.93	18.02	67.65	-0.00	0.0603	10.43	459.0	373.33	0.0586	446.5	8.037	15.98	8.05	1.51
