Jul 28 2015 at 11:19:17
Frequency: 1.00Hz.
CO2
Zero:  Value:0.95  Date:18 Mar 2005	 at 07:22:33	
Span:  Value:1.00  Date:18 Mar 2005	 at 07:25:09	
H2O
Zero:  Value:0.71  Date:18 Mar 2005	 at 07:52:31	
Span:  Value:0.99  Date:18 Mar 2005	 at 11:44:01	
	Relative Time	Temperature	Pressure	Aux Input	CO2 Absorptance	CO2 mmol/m3	CO2 mg/m3	CO2 umol/mol	H2O Absorptance	H2O mmol/m3	H2O g/m3	H2O mmol/mol	H2O(°C)	Cooler Voltage
	0.22	28.62	67.65	0.00	0.0590	10.15	446.7	376.53	0.0629	501.0	9.017	18.58	10.29	1.58
	1.23	28.62	67.62	-0.00	0.0594	10.21	449.0	378.63	0.0610	483.4	8.702	17.94	9.76	1.58
	2.23	28.67	67.67	-0.00	0.0597	10.31	453.6	382.25	0.0590	446.2	8.032	16.55	8.58	1.57
	3.23	28.64	67.65	0.00	0.0595	10.26	451.5	380.57	0.0586	454.8	8.187	16.87	8.86	1.57
	4.23	28.67	67.65	-0.00	0.0599	10.35	455.4	383.91	0.0555	415.4	7.477	15.41	7.52	1.57
	5.24	28.64	67.67	-0.00	0.0598	10.30	453.1	381.82	0.0545	410.4	7.387	15.22	7.34	1.57
	6.29	28.62	67.65	0.00	0.0599	10.35	455.3	383.77	0.0546	405.3	7.295	15.03	7.16	1.58
	7.21	28.65	67.67	0.00	0.0605	10.45	460.0	387.62	0.0533	392.9	7.073	14.57	6.71	1.58
	8.22	28.62	67.65	0.00	0.0604	10.46	460.4	388.08	0.0532	392.1	7.057	14.54	6.68	1.57
	9.22	28.62	67.65	0.00	0.0604	10.45	459.8	387.52	0.0537	395.2	7.114	14.66	6.79	1.57
	10.22	28.60	67.62	0.00	0.0604	10.45	459.7	387.60	0.0542	402.9	7.252	14.95	7.07	1.57
	11.22	28.60	67.67	0.00	0.0600	10.39	457.2	385.25	0.0557	412.5	7.425	15.29	7.42	1.58
	12.25	28.58	67.65	-0.00	0.0600	10.38	456.9	385.04	0.0562	424.5	7.642	15.74	7.84	1.58
	13.23	28.59	67.65	-0.00	0.0597	10.33	454.5	383.08	0.0577	432.9	7.792	16.05	8.12	1.58
	14.24	28.60	67.65	-0.00	0.0596	10.29	452.8	381.65	0.0582	442.9	7.972	16.42	8.46	1.57
	15.29	28.59	67.65	0.00	0.0602	10.37	456.1	384.42	0.0559	426.4	7.675	15.81	7.90	1.57
	16.22	28.59	67.65	0.00	0.0601	10.38	456.7	384.88	0.0558	423.9	7.631	15.72	7.82	1.57
	17.22	28.59	67.62	-0.00	0.0603	10.40	457.4	385.68	0.0554	415.8	7.484	15.42	7.53	1.57
	18.24	28.59	67.65	-0.00	0.0602	10.44	459.4	387.20	0.0555	412.8	7.430	15.31	7.43	1.58
	19.30	28.57	67.62	-0.00	0.0601	10.41	458.2	386.33	0.0556	415.8	7.484	15.42	7.53	1.58
	20.22	28.57	67.67	0.00	0.0600	10.38	456.5	384.60	0.0558	417.9	7.522	15.49	7.61	1.57
	21.22	28.57	67.65	0.00	0.0599	10.36	455.7	384.01	0.0557	416.4	7.495	15.44	7.55	1.57
	22.21	28.59	67.65	0.00	0.0600	10.36	455.8	384.18	0.0560	418.2	7.528	15.51	7.62	1.57
	23.21	28.59	67.67	0.00	0.0601	10.39	457.1	385.13	0.0561	421.2	7.582	15.62	7.72	1.58
	24.29	28.53	67.65	0.00	0.0604	10.44	459.5	387.20	0.0562	422.3	7.601	15.66	7.76	1.57
	25.21	28.57	67.65	0.00	0.0601	10.40	457.6	385.63	0.0560	419.1	7.544	15.54	7.65	1.58
	26.22	28.57	67.67	-0.00	0.0599	10.36	455.8	384.00	0.0556	417.5	7.515	15.48	7.59	1.57
	27.24	28.57	67.65	-0.00	0.0601	10.37	456.5	384.69	0.0560	417.9	7.522	15.50	7.61	1.57
	28.24	28.55	67.68	-0.00	0.0602	10.42	458.4	386.17	0.0570	429.6	7.732	15.92	8.01	1.57
	29.22	28.57	67.67	0.00	0.0603	10.42	458.7	386.40	0.0571	432.3	7.781	16.02	8.10	1.57
	30.22	28.57	67.65	0.00	0.0601	10.38	456.9	385.04	0.0563	423.5	7.623	15.70	7.80	1.58
	31.22	28.52	67.65	0.00	0.0602	10.41	458.2	386.07	0.0568	430.4	7.748	15.96	8.04	1.57
	32.21	28.53	67.65	0.00	0.0600	10.36	455.9	384.15	0.0556	417.0	7.505	15.46	7.57	1.57
	33.23	28.51	67.60	0.00	0.0600	10.36	455.7	384.29	0.0553	412.6	7.427	15.31	7.42	1.57
	34.21	28.51	67.67	0.00	0.0599	10.37	456.1	384.16	0.0554	417.9	7.522	15.49	7.60	1.57
	35.23	28.51	67.67	0.00	0.0599	10.36	455.9	384.02	0.0556	415.5	7.478	15.40	7.52	1.58
	36.21	28.53	67.65	0.00	0.0600	10.36	455.7	384.00	0.0560	418.9	7.540	15.53	7.64	1.58
	37.21	28.55	67.65	0.00	0.0601	10.39	457.2	385.29	0.0575	434.1	7.813	16.09	8.16	1.58
	38.20	28.51	67.65	0.00	0.0601	10.39	457.1	385.18	0.0576	437.5	7.875	16.22	8.28	1.57
	39.22	28.53	67.65	0.00	0.0601	10.39	457.2	385.26	0.0583	443.6	7.985	16.45	8.48	1.57
	40.23	28.52	67.65	0.00	0.0601	10.39	457.1	385.17	0.0579	440.9	7.937	16.35	8.39	1.58
	41.23	28.51	67.65	-0.00	0.0600	10.38	456.9	384.94	0.0579	442.0	7.957	16.39	8.43	1.58
	42.23	28.49	67.63	0.00	0.0601	10.38	456.6	384.83	0.0583	443.9	7.991	16.46	8.49	1.58
	43.23	28.49	67.65	-0.00	0.0599	10.34	455.0	383.35	0.0580	440.7	7.933	16.34	8.38	1.58
	44.23	28.43	67.65	0.00	0.0598	10.31	453.6	382.13	0.0585	445.2	8.013	16.50	8.53	1.57
	45.23	28.42	67.65	-0.00	0.0599	10.34	455.1	383.30	0.0589	450.8	8.115	16.71	8.71	1.58
	46.22	28.43	67.68	-0.00	0.0599	10.36	455.7	383.68	0.0585	447.4	8.053	16.58	8.60	1.58
	47.22	28.43	67.65	0.00	0.0598	10.33	454.4	382.78	0.0584	446.5	8.037	16.55	8.57	1.58
	48.20	28.40	67.65	0.00	0.0598	10.32	454.2	382.52	0.0584	444.9	8.008	16.49	8.52	1.58
	49.23	28.36	67.65	-0.00	0.0598	10.31	453.6	381.94	0.0591	452.3	8.141	16.76	8.76	1.58
	50.23	28.36	67.67	-0.00	0.0599	10.35	455.5	383.48	0.0586	447.2	8.050	16.57	8.59	1.58
	51.23	28.34	67.65	0.00	0.0596	10.27	452.1	380.68	0.0594	456.7	8.221	16.92	8.90	1.58
	52.21	28.26	67.65	0.00	0.0597	10.31	453.7	381.98	0.0589	450.5	8.109	16.69	8.70	1.58
	53.23	28.25	67.63	0.00	0.0595	10.29	452.6	381.15	0.0586	448.0	8.064	16.60	8.61	1.58
	54.29	28.20	67.70	0.00	0.0596	10.26	451.4	379.66	0.0592	457.5	8.235	16.93	8.92	1.58
	55.24	28.19	67.65	-0.00	0.0596	10.28	452.3	380.71	0.0590	450.7	8.113	16.69	8.70	1.58
	56.22	28.25	67.65	-0.00	0.0597	10.31	453.6	381.86	0.0594	456.0	8.207	16.89	8.87	1.58
	57.22	28.29	67.65	0.00	0.0596	10.27	451.9	380.45	0.0595	457.8	8.241	16.96	8.94	1.58
	58.22	28.31	67.65	0.00	0.0597	10.29	452.8	381.29	0.0597	456.8	8.222	16.92	8.90	1.58
	59.22	28.33	67.65	0.00	0.0597	10.29	452.8	381.30	0.0595	457.7	8.239	16.96	8.93	1.58
	60.23	28.36	67.65	-0.00	0.0599	10.35	455.4	383.54	0.0598	460.0	8.280	17.05	9.01	1.57
	61.20	28.36	67.62	0.00	0.0598	10.34	454.8	383.19	0.0596	459.1	8.264	17.02	8.98	1.58
	62.21	28.42	67.67	0.00	0.0599	10.33	454.5	382.71	0.0599	460.2	8.283	17.05	9.02	1.58
	63.21	28.41	67.67	-0.00	0.0598	10.34	454.8	382.98	0.0599	462.3	8.321	17.13	9.09	1.58
	64.23	28.45	67.62	0.00	0.0596	10.29	452.7	381.49	0.0598	461.6	8.308	17.12	9.06	1.58
	65.22	28.45	67.65	-0.00	0.0597	10.28	452.4	381.08	0.0598	461.6	8.310	17.11	9.07	1.58
	66.22	28.47	67.67	0.00	0.0598	10.32	454.1	382.47	0.0596	459.1	8.264	17.01	8.99	1.58
	67.22	28.47	67.65	0.00	0.0596	10.30	453.1	381.69	0.0598	459.2	8.266	17.02	8.99	1.58
	68.22	28.52	67.65	0.00	0.0598	10.30	453.4	381.99	0.0597	461.3	8.303	17.10	9.06	1.58
	69.23	28.49	67.65	-0.00	0.0597	10.30	453.4	382.01	0.0598	460.3	8.285	17.06	9.02	1.58
	70.23	28.51	67.65	0.00	0.0597	10.31	453.5	382.08	0.0597	459.6	8.272	17.04	9.00	1.58
	71.23	28.49	67.65	-0.00	0.0598	10.30	453.4	381.97	0.0598	459.7	8.275	17.04	9.01	1.58
	72.23	28.49	67.65	0.00	0.0596	10.28	452.3	381.02	0.0602	464.1	8.354	17.20	9.15	1.58
	73.21	28.49	67.65	0.00	0.0598	10.30	453.3	381.92	0.0600	466.0	8.388	17.28	9.21	1.58
	74.22	28.51	67.68	0.00	0.0596	10.29	452.6	381.21	0.0601	464.7	8.364	17.22	9.17	1.58
	75.21	28.49	67.65	0.00	0.0595	10.29	452.7	381.45	0.0601	464.2	8.356	17.21	9.15	1.58
	76.21	28.51	67.65	0.00	0.0597	10.31	453.5	382.09	0.0601	464.6	8.364	17.23	9.17	1.58
	77.22	28.51	67.65	-0.00	0.0598	10.32	454.2	382.68	0.0598	460.6	8.290	17.08	9.04	1.58
	78.23	28.51	67.70	-0.00	0.0597	10.32	454.3	382.49	0.0603	464.4	8.359	17.21	9.16	1.58
	79.30	28.53	67.65	0.00	0.0597	10.30	453.2	381.88	0.0607	471.3	8.483	17.47	9.38	1.58
	80.22	28.55	67.67	0.00	0.0595	10.28	452.5	381.17	0.0608	469.7	8.454	17.41	9.33	1.58
	81.21	28.55	67.65	0.00	0.0596	10.28	452.3	381.11	0.0606	469.6	8.452	17.41	9.32	1.58
	82.23	28.55	67.67	-0.00	0.0597	10.28	452.4	381.07	0.0606	469.5	8.451	17.40	9.32	1.58
	83.23	28.53	67.65	-0.00	0.0599	10.34	454.9	383.31	0.0606	469.9	8.459	17.42	9.33	1.58
	84.22	28.52	67.65	-0.00	0.0598	10.32	454.2	382.75	0.0606	470.0	8.460	17.42	9.34	1.58
	85.21	28.51	67.65	0.00	0.0597	10.29	452.8	381.54	0.0608	472.3	8.501	17.51	9.41	1.58
	86.24	28.52	67.65	-0.00	0.0598	10.33	454.3	382.83	0.0608	471.3	8.484	17.47	9.38	1.58
	87.22	28.49	67.62	0.00	0.0598	10.32	454.1	382.72	0.0606	470.8	8.474	17.46	9.36	1.58
	88.23	28.49	67.68	-0.00	0.0597	10.31	453.8	382.20	0.0603	466.0	8.387	17.27	9.21	1.58
	89.23	28.51	67.67	-0.00	0.0598	10.32	453.9	382.30	0.0602	463.1	8.337	17.16	9.12	1.58
	90.23	28.52	67.65	0.00	0.0597	10.32	454.2	382.73	0.0605	468.9	8.441	17.39	9.30	1.58
	91.23	28.53	67.67	-0.00	0.0596	10.31	453.5	382.00	0.0607	471.4	8.485	17.47	9.38	1.58
	92.23	28.57	67.65	0.00	0.0598	10.33	454.3	382.89	0.0606	470.8	8.475	17.46	9.37	1.58
	93.29	28.57	67.68	0.00	0.0599	10.34	454.8	383.16	0.0602	465.3	8.376	17.25	9.19	1.58
	94.24	28.57	67.65	-0.00	0.0599	10.33	454.7	383.22	0.0603	464.2	8.356	17.21	9.15	1.58
	95.22	28.55	67.65	-0.00	0.0598	10.33	454.7	383.18	0.0610	473.2	8.518	17.55	9.44	1.58
	96.22	28.59	67.65	-0.00	0.0598	10.32	454.2	382.80	0.0611	473.8	8.529	17.57	9.46	1.58
	97.22	28.59	67.65	-0.00	0.0598	10.32	454.0	382.66	0.0611	473.4	8.521	17.55	9.45	1.58
	98.22	28.59	67.65	0.00	0.0597	10.31	453.8	382.49	0.0614	478.1	8.606	17.73	9.59	1.58
	99.23	28.59	67.65	-0.00	0.0598	10.32	453.9	382.49	0.0613	477.4	8.593	17.70	9.57	1.58
	100.22	28.59	67.65	-0.00	0.0598	10.31	453.8	382.45	0.0611	475.6	8.561	17.64	9.52	1.58
	101.23	28.59	67.65	0.00	0.0598	10.33	454.4	382.94	0.0613	477.1	8.587	17.69	9.56	1.58
	102.23	28.56	67.68	0.00	0.0597	10.30	453.4	381.96	0.0613	478.3	8.610	17.73	9.60	1.58
	103.21	28.55	67.65	0.00	0.0597	10.30	453.4	382.07	0.0616	481.2	8.662	17.84	9.69	1.58
	104.22	28.53	67.67	0.00	0.0597	10.29	452.8	381.43	0.0618	482.5	8.684	17.88	9.73	1.58
	105.21	28.53	67.65	0.00	0.0596	10.28	452.4	381.24	0.0619	485.1	8.731	17.98	9.81	1.58
	106.22	28.56	67.63	0.00	0.0596	10.27	452.0	381.08	0.0619	483.7	8.707	17.94	9.77	1.58
	107.20	28.49	67.65	0.00	0.0596	10.29	452.9	381.55	0.0620	486.2	8.752	18.02	9.84	1.58
	108.23	28.47	67.65	-0.00	0.0596	10.30	453.0	381.68	0.0619	484.6	8.723	17.96	9.79	1.58
	109.22	28.43	67.65	-0.00	0.0597	10.29	452.9	381.52	0.0620	484.6	8.722	17.96	9.79	1.58
	110.23	28.45	67.65	0.00	0.0597	10.31	453.6	382.14	0.0617	482.0	8.675	17.86	9.71	1.58
	111.28	28.43	67.68	0.00	0.0598	10.31	453.8	382.15	0.0617	480.8	8.654	17.81	9.67	1.58
	112.21	28.47	67.65	0.00	0.0597	10.31	453.5	382.06	0.0616	482.8	8.691	17.90	9.73	1.58
	113.22	28.49	67.67	0.00	0.0597	10.29	452.8	381.40	0.0626	492.2	8.860	18.24	10.02	1.58
	114.21	28.49	67.70	0.00	0.0597	10.30	453.2	381.56	0.0625	488.5	8.794	18.10	9.91	1.58
	115.22	28.52	67.62	0.00	0.0596	10.29	452.6	381.47	0.0629	492.9	8.873	18.28	10.05	1.58
	116.20	28.49	67.65	0.00	0.0596	10.28	452.3	381.10	0.0622	489.7	8.815	18.15	9.95	1.58
	117.22	28.51	67.65	0.00	0.0596	10.27	452.1	380.90	0.0631	496.7	8.940	18.41	10.16	1.58
	118.20	28.49	67.67	0.00	0.0596	10.28	452.1	380.81	0.0631	496.1	8.929	18.38	10.14	1.58
	119.22	28.52	67.67	0.00	0.0596	10.27	452.0	380.69	0.0629	495.3	8.915	18.36	10.12	1.58
	120.21	28.49	67.65	-0.00	0.0596	10.27	451.7	380.59	0.0632	498.9	8.981	18.50	10.23	1.58
	121.21	28.45	67.65	0.00	0.0595	10.26	451.5	380.35	0.0634	500.6	9.010	18.55	10.27	1.58
