Jul 28 2015 at 10:50:54
Frequency: 1.00Hz.
CO2
Zero:  Value:0.95  Date:18 Mar 2005	 at 07:22:33	
Span:  Value:1.00  Date:18 Mar 2005	 at 07:25:09	
H2O
Zero:  Value:0.71  Date:18 Mar 2005	 at 07:52:31	
Span:  Value:0.99  Date:18 Mar 2005	 at 11:44:01	
	Relative Time	Temperature	Pressure	Aux Input	CO2 Absorptance	CO2 mmol/m3	CO2 mg/m3	CO2 umol/mol	H2O Absorptance	H2O mmol/m3	H2O g/m3	H2O mmol/mol	H2O(°C)	Cooler Voltage
	0.11	27.02	67.67	0.00	0.0620	10.83	476.5	399.38	0.0427	289.7	5.214	10.68	2.28	1.58
	1.11	27.03	67.65	0.00	0.0620	10.81	475.8	398.94	0.0425	288.0	5.185	10.63	2.20	1.58
	2.12	27.05	67.65	0.00	0.0618	10.77	473.7	397.21	0.0429	290.6	5.231	10.72	2.32	1.58
	3.12	27.05	67.67	0.00	0.0618	10.77	473.9	397.25	0.0429	290.5	5.229	10.71	2.32	1.58
	4.12	27.05	67.68	0.00	0.0618	10.77	473.8	397.14	0.0431	292.3	5.262	10.78	2.41	1.58
	5.13	27.05	67.65	-0.00	0.0618	10.77	473.8	397.30	0.0433	291.5	5.247	10.75	2.37	1.58
	6.12	27.05	67.67	0.00	0.0619	10.77	473.8	397.15	0.0435	295.3	5.316	10.89	2.55	1.58
	7.21	27.05	67.65	-0.00	0.0617	10.77	473.7	397.18	0.0441	300.6	5.412	11.09	2.80	1.58
	8.13	27.05	67.65	-0.00	0.0617	10.76	473.6	397.10	0.0445	307.9	5.543	11.36	3.14	1.58
	9.13	27.08	67.65	0.00	0.0617	10.76	473.4	397.01	0.0452	311.7	5.611	11.50	3.31	1.58
	10.11	27.03	67.65	0.00	0.0619	10.77	473.9	397.34	0.0449	311.0	5.599	11.48	3.28	1.58
	11.12	27.03	67.65	0.00	0.0618	10.78	474.5	397.87	0.0452	310.4	5.587	11.45	3.25	1.58
	12.11	27.03	67.65	0.00	0.0618	10.77	473.8	397.29	0.0458	318.2	5.728	11.74	3.60	1.58
	13.10	27.03	67.65	0.00	0.0617	10.76	473.6	397.04	0.0465	324.0	5.831	11.95	3.86	1.58
	14.12	27.06	67.65	0.00	0.0616	10.73	472.2	395.94	0.0456	319.9	5.758	11.80	3.68	1.58
	15.10	27.03	67.65	0.00	0.0617	10.76	473.4	396.94	0.0466	325.8	5.865	12.02	3.94	1.58
	16.11	27.02	67.65	0.00	0.0615	10.69	470.3	394.27	0.0457	316.0	5.688	11.66	3.50	1.58
	17.11	27.02	67.65	-0.00	0.0616	10.73	472.3	395.96	0.0452	313.5	5.643	11.57	3.39	1.58
	18.11	27.03	67.65	0.00	0.0615	10.72	471.5	395.36	0.0454	316.8	5.702	11.69	3.54	1.58
	19.19	27.01	67.65	0.00	0.0617	10.75	472.9	396.44	0.0463	320.5	5.768	11.82	3.70	1.58
	20.14	27.02	67.62	-0.00	0.0617	10.76	473.5	397.12	0.0466	328.0	5.905	12.11	4.03	1.58
	21.12	27.03	67.65	-0.00	0.0616	10.73	471.9	395.67	0.0465	324.1	5.834	11.96	3.86	1.58
	22.11	27.03	67.65	0.00	0.0615	10.71	471.4	395.26	0.0461	325.5	5.859	12.01	3.93	1.58
	23.12	27.05	67.65	0.00	0.0616	10.72	471.8	395.60	0.0466	322.6	5.806	11.90	3.80	1.58
	24.13	27.05	67.65	0.00	0.0616	10.73	472.0	395.81	0.0475	333.8	6.008	12.31	4.28	1.58
	25.13	27.03	67.65	-0.00	0.0616	10.74	472.4	396.05	0.0471	331.3	5.963	12.22	4.18	1.58
	26.11	27.05	67.65	-0.00	0.0615	10.72	471.5	395.37	0.0465	325.6	5.860	12.01	3.93	1.58
	27.11	27.05	67.70	0.00	0.0614	10.70	470.7	394.37	0.0465	324.3	5.838	11.96	3.88	1.58
	28.19	27.09	67.65	0.00	0.0614	10.69	470.3	394.36	0.0464	325.7	5.863	12.02	3.94	1.58
	29.11	27.07	67.65	0.00	0.0614	10.69	470.4	394.50	0.0480	338.4	6.092	12.49	4.48	1.58
	30.12	27.07	67.65	0.00	0.0612	10.65	468.6	392.98	0.0481	338.3	6.090	12.48	4.48	1.58
	31.14	27.07	67.65	-0.00	0.0613	10.65	468.8	393.11	0.0501	361.3	6.503	13.33	5.42	1.58
	32.20	27.07	67.60	-0.00	0.0614	10.67	469.5	394.04	0.0498	358.3	6.450	13.23	5.30	1.58
	33.12	27.07	67.65	0.00	0.0614	10.67	469.5	393.70	0.0502	358.6	6.454	13.23	5.31	1.58
	34.13	27.07	67.65	-0.00	0.0614	10.68	469.9	394.06	0.0498	355.7	6.403	13.12	5.20	1.58
	35.12	27.07	67.65	0.00	0.0613	10.65	468.7	393.00	0.0495	352.8	6.350	13.02	5.08	1.58
	36.13	27.11	67.65	-0.00	0.0613	10.65	468.4	392.84	0.0484	348.4	6.271	12.86	4.90	1.58
	37.13	27.09	67.65	0.00	0.0614	10.69	470.2	394.33	0.0486	346.1	6.231	12.77	4.81	1.58
	38.11	27.07	67.65	0.00	0.0613	10.68	469.8	393.94	0.0491	349.3	6.288	12.89	4.94	1.58
	39.12	27.09	67.65	0.00	0.0614	10.67	469.4	393.70	0.0489	346.6	6.238	12.79	4.82	1.58
	40.11	27.09	67.65	0.00	0.0613	10.66	469.3	393.50	0.0491	348.8	6.278	12.87	4.91	1.58
	41.14	27.11	67.65	-0.00	0.0613	10.66	469.0	393.31	0.0487	346.0	6.228	12.77	4.80	1.58
	42.14	27.10	67.68	0.00	0.0613	10.65	468.5	392.77	0.0493	349.1	6.284	12.88	4.93	1.58
	43.12	27.11	67.68	0.00	0.0612	10.64	468.1	392.45	0.0492	350.5	6.309	12.93	4.98	1.58
	44.18	27.09	67.68	0.00	0.0613	10.65	468.6	392.81	0.0493	351.8	6.333	12.98	5.04	1.58
	45.12	27.13	67.65	0.00	0.0613	10.64	468.2	392.65	0.0500	361.2	6.502	13.33	5.42	1.58
	46.11	27.11	67.65	0.00	0.0612	10.64	468.2	392.64	0.0497	355.4	6.396	13.11	5.18	1.58
	47.13	27.11	67.65	-0.00	0.0612	10.61	466.9	391.54	0.0502	362.4	6.524	13.37	5.47	1.58
	48.11	27.13	67.65	0.00	0.0610	10.60	466.3	391.13	0.0511	366.1	6.591	13.51	5.61	1.58
	49.11	27.13	67.62	0.00	0.0611	10.61	466.8	391.62	0.0506	367.6	6.617	13.57	5.67	1.58
	50.12	27.13	67.65	0.00	0.0612	10.63	467.8	392.36	0.0491	349.2	6.286	12.89	4.93	1.58
	51.11	27.13	67.67	0.00	0.0611	10.60	466.6	391.23	0.0509	363.7	6.547	13.42	5.52	1.58
	52.12	27.13	67.65	0.00	0.0611	10.60	466.6	391.30	0.0506	365.0	6.571	13.47	5.57	1.58
	53.20	27.14	67.65	-0.00	0.0610	10.59	466.1	390.90	0.0504	362.3	6.521	13.37	5.46	1.58
	54.12	27.12	67.65	0.00	0.0611	10.60	466.6	391.32	0.0502	361.9	6.515	13.36	5.45	1.58
	55.12	27.13	67.68	0.00	0.0610	10.59	466.0	390.69	0.0498	356.4	6.416	13.15	5.23	1.58
	56.11	27.10	67.65	0.00	0.0611	10.59	466.0	390.84	0.0495	356.2	6.411	13.14	5.22	1.58
	57.11	27.15	67.65	0.00	0.0611	10.61	466.9	391.57	0.0500	359.8	6.476	13.28	5.36	1.58
	58.13	27.15	67.65	-0.00	0.0610	10.59	465.9	390.77	0.0497	355.4	6.397	13.11	5.19	1.58
	59.11	27.14	67.65	0.00	0.0610	10.60	466.3	391.14	0.0507	365.4	6.576	13.48	5.58	1.58
	60.12	27.13	67.65	0.00	0.0611	10.61	466.9	391.60	0.0509	365.1	6.572	13.47	5.57	1.58
	61.12	27.14	67.65	-0.00	0.0611	10.61	466.7	391.45	0.0511	370.8	6.674	13.68	5.80	1.58
	62.12	27.13	67.65	0.00	0.0610	10.59	466.0	390.84	0.0506	365.4	6.577	13.48	5.58	1.58
	63.12	27.15	67.65	0.00	0.0610	10.57	465.3	390.25	0.0507	359.6	6.473	13.27	5.36	1.58
	64.12	27.16	67.65	0.00	0.0610	10.59	466.0	390.91	0.0511	366.8	6.603	13.54	5.64	1.58
	65.19	27.15	67.65	0.00	0.0609	10.57	465.1	390.11	0.0512	369.7	6.655	13.64	5.76	1.58
	66.13	27.16	67.65	-0.00	0.0610	10.58	465.7	390.62	0.0517	375.0	6.750	13.84	5.96	1.58
	67.13	27.16	67.65	0.00	0.0611	10.60	466.4	391.22	0.0513	370.7	6.672	13.68	5.79	1.58
	68.11	27.16	67.65	0.00	0.0610	10.59	466.1	391.01	0.0525	383.4	6.901	14.15	6.28	1.58
	69.12	27.19	67.65	0.00	0.0609	10.58	465.3	390.35	0.0526	385.8	6.945	14.24	6.37	1.58
	70.12	27.17	67.65	-0.00	0.0609	10.55	464.4	389.53	0.0518	376.3	6.774	13.89	6.01	1.58
	71.20	27.19	67.65	-0.00	0.0608	10.56	464.8	389.87	0.0523	382.8	6.891	14.13	6.26	1.58
	72.12	27.21	67.65	-0.00	0.0609	10.57	465.0	390.11	0.0527	384.1	6.913	14.18	6.31	1.58
	73.10	27.18	67.65	0.00	0.0608	10.54	463.8	389.07	0.0530	388.6	6.994	14.34	6.48	1.58
	74.12	27.18	67.68	0.00	0.0607	10.52	462.9	388.16	0.0537	397.5	7.154	14.66	6.81	1.58
	75.13	27.16	67.65	-0.00	0.0607	10.52	462.7	388.12	0.0530	390.5	7.029	14.41	6.55	1.58
	76.13	27.18	67.65	0.00	0.0606	10.49	461.6	387.21	0.0539	398.8	7.178	14.72	6.85	1.58
	77.11	27.20	67.65	0.00	0.0607	10.52	462.7	388.19	0.0537	396.5	7.137	14.64	6.77	1.58
	78.12	27.18	67.65	0.00	0.0607	10.53	463.2	388.56	0.0539	395.7	7.123	14.61	6.74	1.58
	79.11	27.22	67.65	0.00	0.0607	10.51	462.5	388.00	0.0543	403.7	7.267	14.90	7.04	1.58
	80.14	27.20	67.65	0.00	0.0606	10.49	461.8	387.39	0.0543	400.1	7.201	14.77	6.90	1.58
	81.11	27.18	67.65	0.00	0.0606	10.50	462.1	387.62	0.0545	401.8	7.232	14.83	6.96	1.58
	82.12	27.20	67.65	0.00	0.0606	10.49	461.6	387.23	0.0544	406.3	7.313	15.00	7.13	1.58
	83.18	27.22	67.65	0.00	0.0606	10.49	461.7	387.32	0.0541	400.4	7.207	14.78	6.92	1.58
	84.13	27.20	67.65	-0.00	0.0605	10.49	461.4	387.11	0.0549	405.5	7.299	14.97	7.10	1.58
	85.11	27.18	67.65	0.00	0.0606	10.51	462.5	388.00	0.0547	402.3	7.241	14.85	6.98	1.58
	86.13	27.20	67.62	-0.00	0.0605	10.46	460.4	386.41	0.0549	409.8	7.376	15.13	7.25	1.58
	87.13	27.16	67.65	-0.00	0.0604	10.47	460.7	386.48	0.0546	404.0	7.272	14.91	7.04	1.58
	88.12	27.22	67.65	0.00	0.0606	10.50	461.8	387.43	0.0546	407.7	7.339	15.05	7.18	1.58
	89.11	27.22	67.65	0.00	0.0606	10.50	462.0	387.64	0.0548	407.4	7.333	15.04	7.17	1.58
	90.20	27.21	67.65	0.00	0.0605	10.48	461.3	387.02	0.0551	406.2	7.311	14.99	7.12	1.58
	91.12	27.22	67.60	0.00	0.0606	10.49	461.7	387.63	0.0549	408.8	7.358	15.10	7.22	1.58
	92.12	27.21	67.65	-0.00	0.0605	10.48	461.0	386.77	0.0552	410.2	7.384	15.14	7.27	1.58
	93.12	27.23	67.67	0.00	0.0605	10.48	461.0	386.66	0.0550	410.1	7.382	15.13	7.27	1.58
	94.11	27.23	67.65	0.00	0.0605	10.46	460.4	386.31	0.0552	411.7	7.411	15.20	7.32	1.58
	95.13	27.24	67.65	-0.00	0.0605	10.47	460.6	386.45	0.0559	419.9	7.559	15.50	7.61	1.58
	96.13	27.26	67.60	-0.00	0.0605	10.47	460.9	387.02	0.0557	417.4	7.513	15.42	7.52	1.58
	97.09	27.24	67.68	0.00	0.0606	10.49	461.4	386.94	0.0549	406.2	7.312	14.99	7.13	1.58
	98.14	27.24	67.65	-0.00	0.0604	10.46	460.3	386.17	0.0555	412.7	7.429	15.24	7.36	1.58
	99.12	27.26	67.67	0.00	0.0603	10.44	459.5	385.45	0.0553	413.1	7.436	15.25	7.37	1.58
	100.11	27.24	67.62	0.00	0.0604	10.45	459.9	386.05	0.0556	414.8	7.466	15.32	7.43	1.58
	101.14	27.24	67.65	-0.00	0.0604	10.46	460.2	386.12	0.0554	413.8	7.448	15.28	7.40	1.58
	102.10	27.23	67.65	0.00	0.0604	10.46	460.4	386.24	0.0548	407.6	7.336	15.05	7.17	1.58
	103.12	27.24	67.65	0.00	0.0604	10.45	460.0	385.96	0.0559	414.7	7.465	15.31	7.43	1.58
	104.11	27.26	67.65	-0.00	0.0602	10.41	458.2	384.43	0.0562	418.5	7.533	15.45	7.56	1.58
	105.11	27.26	67.65	0.00	0.0602	10.43	459.1	385.18	0.0572	425.0	7.651	15.69	7.79	1.58
	106.13	27.24	67.65	0.00	0.0604	10.45	459.7	385.64	0.0567	426.4	7.675	15.74	7.83	1.58
	107.14	27.26	67.67	0.00	0.0604	10.45	459.6	385.54	0.0564	422.8	7.610	15.60	7.71	1.58
	108.12	27.26	67.65	0.00	0.0603	10.43	459.1	385.19	0.0561	424.2	7.635	15.66	7.76	1.58
	109.12	27.27	67.65	0.00	0.0602	10.42	458.4	384.62	0.0568	424.7	7.644	15.68	7.78	1.58
	110.12	27.29	67.65	0.00	0.0603	10.42	458.6	384.82	0.0564	423.3	7.619	15.63	7.73	1.58
	111.10	27.26	67.65	0.00	0.0602	10.41	457.9	384.23	0.0564	426.5	7.677	15.75	7.84	1.58
	112.13	27.27	67.68	-0.00	0.0603	10.43	458.9	384.88	0.0565	423.7	7.626	15.64	7.74	1.58
	113.12	27.27	67.65	-0.00	0.0602	10.42	458.4	384.70	0.0566	424.8	7.647	15.69	7.78	1.58
	114.13	27.30	67.65	-0.00	0.0601	10.40	457.4	383.84	0.0569	425.6	7.660	15.71	7.81	1.58
	115.11	27.29	67.65	0.00	0.0601	10.39	457.3	383.80	0.0576	436.5	7.857	16.12	8.18	1.58
	116.11	27.27	67.68	0.00	0.0601	10.39	457.1	383.41	0.0572	432.7	7.788	15.97	8.05	1.58
	117.19	27.30	67.65	-0.00	0.0602	10.41	458.1	384.38	0.0571	432.2	7.780	15.96	8.04	1.58
	118.12	27.27	67.65	0.00	0.0600	10.36	455.7	382.39	0.0574	436.4	7.855	16.11	8.18	1.58
	119.11	27.29	67.67	0.00	0.0600	10.37	456.3	382.81	0.0587	448.9	8.080	16.57	8.60	1.58
