Jul 28 2015 at 14:43:04
Frequency: 1.00Hz.
CO2
Zero:  Value:0.95  Date:18 Mar 2005	 at 07:22:33	
Span:  Value:1.00  Date:18 Mar 2005	 at 07:25:09	
H2O
Zero:  Value:0.71  Date:18 Mar 2005	 at 07:52:31	
Span:  Value:0.99  Date:18 Mar 2005	 at 11:44:01	
	Relative Time	Temperature	Pressure	Aux Input	CO2 Absorptance	CO2 mmol/m3	CO2 mg/m3	CO2 umol/mol	H2O Absorptance	H2O mmol/m3	H2O g/m3	H2O mmol/mol	H2O(°C)	Cooler Voltage
	0.11	33.64	67.73	0.00	0.0622	10.86	477.9	409.01	0.0408	275.7	4.963	10.38	1.89	1.62
	1.11	33.64	67.75	0.00	0.0621	10.83	476.7	407.85	0.0415	278.8	5.019	10.50	2.05	1.62
	2.12	33.68	67.75	0.00	0.0618	10.81	475.5	406.90	0.0413	278.4	5.011	10.48	2.03	1.62
	3.10	33.63	67.73	0.00	0.0622	10.85	477.2	408.42	0.0427	286.9	5.165	10.81	2.45	1.62
	4.12	33.67	67.75	0.00	0.0620	10.83	476.4	407.67	0.0426	287.7	5.178	10.83	2.49	1.62
	5.10	33.64	67.75	0.00	0.0620	10.81	475.7	406.98	0.0429	290.8	5.234	10.95	2.64	1.62
	6.12	33.71	67.75	-0.00	0.0620	10.81	475.6	407.00	0.0429	295.6	5.322	11.13	2.87	1.62
	7.10	33.62	67.78	0.00	0.0620	10.81	475.8	406.89	0.0437	295.7	5.323	11.13	2.87	1.62
	8.11	33.64	67.73	0.00	0.0619	10.81	475.7	407.18	0.0444	305.9	5.506	11.52	3.35	1.62
	9.10	33.60	67.73	0.00	0.0620	10.79	474.6	406.14	0.0447	306.0	5.509	11.52	3.36	1.62
	10.11	33.65	67.73	0.00	0.0620	10.81	475.7	407.21	0.0455	313.3	5.640	11.80	3.69	1.62
	11.11	33.65	67.73	-0.00	0.0620	10.80	475.4	406.92	0.0456	316.6	5.698	11.92	3.84	1.62
	12.09	33.61	67.73	0.00	0.0620	10.83	476.4	407.76	0.0464	327.9	5.903	12.35	4.34	1.62
	13.09	33.62	67.73	0.00	0.0621	10.83	476.5	407.80	0.0477	330.2	5.944	12.44	4.44	1.62
	14.10	33.60	67.75	0.00	0.0620	10.81	475.8	407.02	0.0474	334.2	6.015	12.58	4.61	1.62
	15.12	33.54	67.73	0.00	0.0621	10.81	475.7	407.06	0.0468	326.2	5.872	12.28	4.26	1.61
	16.11	33.52	67.73	-0.00	0.0620	10.81	475.5	406.79	0.0460	318.6	5.734	11.99	3.92	1.62
	17.10	33.49	67.75	0.00	0.0621	10.82	476.2	407.25	0.0463	317.9	5.721	11.96	3.89	1.62
	18.11	33.50	67.75	-0.00	0.0620	10.80	475.1	406.33	0.0464	322.4	5.803	12.13	4.09	1.62
	19.11	33.45	67.73	0.00	0.0620	10.80	475.2	406.45	0.0459	320.9	5.777	12.08	4.02	1.61
	20.11	33.46	67.73	-0.00	0.0620	10.81	475.7	406.92	0.0446	309.2	5.565	11.64	3.50	1.62
	21.11	33.47	67.73	0.00	0.0620	10.81	475.7	406.94	0.0449	308.4	5.552	11.61	3.46	1.61
	22.09	33.50	67.73	0.00	0.0620	10.82	476.1	407.29	0.0453	315.9	5.686	11.89	3.80	1.62
	23.10	33.43	67.75	-0.00	0.0621	10.83	476.5	407.47	0.0461	322.2	5.799	12.12	4.08	1.62
	24.09	33.48	67.73	0.00	0.0620	10.83	476.4	407.49	0.0463	326.0	5.868	12.27	4.25	1.62
	25.12	33.39	67.73	0.00	0.0619	10.80	475.2	406.42	0.0469	327.7	5.898	12.33	4.32	1.62
	26.11	33.42	67.78	-0.00	0.0622	10.84	477.1	407.78	0.0484	337.3	6.072	12.68	4.73	1.62
	27.11	33.40	67.73	0.00	0.0623	10.87	478.1	408.90	0.0489	350.9	6.316	13.20	5.30	1.62
	28.10	33.41	67.75	0.00	0.0623	10.87	478.4	409.04	0.0495	354.5	6.382	13.34	5.45	1.62
	29.13	33.48	67.73	-0.00	0.0623	10.87	478.3	409.21	0.0504	358.5	6.452	13.49	5.61	1.62
	30.11	33.43	67.75	-0.00	0.0624	10.90	479.6	410.05	0.0515	372.9	6.713	14.03	6.18	1.62
	31.12	33.49	67.75	-0.00	0.0623	10.88	478.8	409.44	0.0509	361.9	6.515	13.62	5.75	1.61
	32.10	33.47	67.78	-0.00	0.0625	10.92	480.4	410.68	0.0527	386.9	6.964	14.55	6.72	1.61
	33.12	33.50	67.73	-0.00	0.0624	10.90	479.4	410.14	0.0523	380.5	6.848	14.32	6.47	1.62
	34.10	33.52	67.75	-0.00	0.0624	10.91	480.0	410.52	0.0522	384.5	6.921	14.47	6.63	1.62
	35.12	33.52	67.75	-0.00	0.0622	10.85	477.5	408.42	0.0511	366.0	6.588	13.77	5.91	1.62
	36.10	33.45	67.73	-0.00	0.0623	10.88	478.7	409.49	0.0515	371.9	6.694	14.00	6.14	1.62
	37.10	33.43	67.75	0.00	0.0623	10.89	479.1	409.66	0.0521	382.8	6.890	14.40	6.56	1.61
	38.10	33.39	67.72	0.00	0.0623	10.89	479.2	409.90	0.0518	381.9	6.874	14.37	6.52	1.61
	39.09	33.37	67.73	0.00	0.0623	10.86	477.7	408.47	0.0520	366.7	6.601	13.80	5.93	1.61
	40.09	33.33	67.75	0.00	0.0623	10.87	478.2	408.75	0.0529	382.6	6.886	14.39	6.55	1.62
	41.12	33.31	67.73	-0.00	0.0623	10.87	478.2	408.82	0.0532	388.4	6.991	14.61	6.76	1.62
	42.10	33.25	67.73	0.00	0.0623	10.87	478.1	408.70	0.0531	391.2	7.042	14.71	6.87	1.62
	43.10	33.25	67.75	0.00	0.0622	10.86	478.0	408.51	0.0530	388.9	7.001	14.62	6.78	1.61
	44.12	33.25	67.75	0.00	0.0620	10.82	476.1	406.86	0.0522	382.0	6.875	14.36	6.52	1.61
	45.10	33.22	67.73	0.00	0.0621	10.83	476.4	407.18	0.0528	383.6	6.906	14.43	6.58	1.62
	46.13	33.18	67.75	-0.00	0.0622	10.86	477.7	408.10	0.0534	391.7	7.051	14.73	6.88	1.62
	47.11	33.20	67.73	0.00	0.0623	10.88	478.6	409.06	0.0540	397.7	7.158	14.95	7.10	1.62
	48.13	33.20	67.73	-0.00	0.0624	10.89	479.3	409.69	0.0543	402.0	7.236	15.12	7.26	1.62
	49.11	33.16	67.78	-0.00	0.0623	10.87	478.5	408.60	0.0542	399.0	7.182	14.99	7.15	1.62
	50.12	33.20	67.70	-0.00	0.0623	10.90	479.5	409.93	0.0545	403.0	7.253	15.16	7.30	1.62
	51.11	33.14	67.75	-0.00	0.0623	10.89	479.3	409.45	0.0541	400.4	7.207	15.05	7.20	1.62
	52.12	33.16	67.78	0.00	0.0624	10.90	479.6	409.57	0.0547	406.7	7.321	15.28	7.43	1.62
	53.10	33.15	67.73	0.00	0.0624	10.89	479.1	409.42	0.0545	404.4	7.278	15.20	7.34	1.62
	54.10	33.16	67.75	0.00	0.0622	10.87	478.2	408.49	0.0543	401.0	7.218	15.07	7.22	1.61
	55.12	33.13	67.75	0.00	0.0624	10.89	479.2	409.34	0.0547	406.4	7.315	15.27	7.42	1.62
	56.11	33.07	67.75	-0.00	0.0622	10.86	478.1	408.25	0.0547	406.8	7.322	15.28	7.43	1.62
	57.11	33.06	67.75	0.00	0.0623	10.89	479.0	409.10	0.0549	408.1	7.346	15.33	7.47	1.62
	58.09	33.07	67.73	0.00	0.0623	10.87	478.3	408.66	0.0553	411.1	7.399	15.45	7.58	1.62
	59.11	33.04	67.73	-0.00	0.0624	10.89	479.2	409.39	0.0554	412.4	7.423	15.50	7.63	1.62
	60.11	33.07	67.75	0.00	0.0623	10.89	479.0	409.06	0.0557	416.2	7.492	15.64	7.76	1.62
	61.11	33.04	67.78	0.00	0.0623	10.88	478.6	408.49	0.0556	416.6	7.499	15.65	7.78	1.62
	62.09	33.09	67.73	0.00	0.0621	10.83	476.7	407.30	0.0552	409.7	7.374	15.40	7.53	1.62
	63.12	33.08	67.73	-0.00	0.0622	10.86	478.1	408.43	0.0553	412.1	7.418	15.49	7.62	1.62
	64.08	33.08	67.73	0.00	0.0624	10.88	478.9	409.14	0.0556	416.2	7.492	15.65	7.76	1.62
	65.10	33.11	67.73	0.00	0.0623	10.88	478.7	408.98	0.0561	418.7	7.536	15.74	7.85	1.62
	66.10	33.06	67.75	-0.00	0.0623	10.87	478.3	408.47	0.0561	420.7	7.572	15.81	7.92	1.62
	67.13	33.08	67.73	-0.00	0.0623	10.87	478.3	408.66	0.0562	419.7	7.554	15.78	7.89	1.61
	68.09	33.09	67.75	0.00	0.0623	10.88	478.5	408.72	0.0568	424.7	7.645	15.96	8.06	1.62
	69.11	33.06	67.73	0.00	0.0622	10.88	478.6	408.88	0.0559	422.0	7.595	15.86	7.96	1.62
	70.11	33.06	67.73	0.00	0.0623	10.87	478.2	408.49	0.0571	429.8	7.736	16.15	8.23	1.62
	71.11	33.09	67.73	0.00	0.0624	10.89	479.4	409.55	0.0566	426.0	7.668	16.01	8.10	1.62
	72.10	33.06	67.73	0.00	0.0624	10.89	479.2	409.36	0.0567	427.6	7.697	16.07	8.16	1.62
	73.10	33.08	67.73	0.00	0.0624	10.88	478.9	409.11	0.0566	426.7	7.681	16.04	8.13	1.62
	74.10	33.06	67.75	-0.00	0.0622	10.88	478.5	408.64	0.0562	425.2	7.654	15.98	8.08	1.62
	75.10	33.08	67.75	0.00	0.0624	10.90	479.5	409.49	0.0570	431.3	7.764	16.21	8.29	1.62
	76.10	33.06	67.75	0.00	0.0624	10.88	478.8	408.89	0.0570	428.1	7.707	16.09	8.18	1.62
	77.11	33.04	67.73	-0.00	0.0624	10.89	479.3	409.43	0.0571	430.9	7.757	16.20	8.27	1.62
	78.09	33.07	67.75	0.00	0.0624	10.89	479.1	409.16	0.0571	431.2	7.761	16.20	8.28	1.62
	79.12	33.04	67.78	-0.00	0.0624	10.89	479.2	409.08	0.0572	432.3	7.782	16.24	8.32	1.62
	80.11	33.04	67.73	0.00	0.0623	10.88	478.7	408.89	0.0572	432.5	7.785	16.26	8.33	1.62
	81.18	33.03	67.73	0.00	0.0621	10.85	477.3	407.68	0.0568	427.9	7.703	16.08	8.17	1.62
	82.10	33.03	67.75	0.00	0.0622	10.86	477.8	408.03	0.0570	431.0	7.757	16.19	8.27	1.62
	83.12	33.05	67.78	-0.00	0.0623	10.87	478.3	408.31	0.0572	432.7	7.789	16.25	8.33	1.62
	84.10	33.07	67.78	0.00	0.0624	10.89	479.0	408.87	0.0580	437.6	7.876	16.44	8.50	1.62
	85.11	33.00	67.75	-0.00	0.0623	10.89	479.0	408.95	0.0576	438.3	7.889	16.46	8.52	1.62
	86.10	32.98	67.78	0.00	0.0623	10.87	478.4	408.23	0.0574	435.5	7.839	16.35	8.42	1.62
	87.11	32.95	67.73	-0.00	0.0623	10.87	478.3	408.46	0.0578	438.0	7.884	16.46	8.51	1.62
	88.09	32.98	67.76	0.00	0.0625	10.90	479.7	409.56	0.0586	445.8	8.025	16.75	8.77	1.62
	89.11	32.95	67.78	0.00	0.0624	10.89	479.2	408.92	0.0582	444.2	7.995	16.68	8.72	1.62
	90.11	33.00	67.75	-0.00	0.0623	10.89	479.1	409.05	0.0579	441.4	7.946	16.58	8.63	1.62
	91.11	32.95	67.75	0.00	0.0624	10.90	479.8	409.58	0.0584	446.0	8.029	16.75	8.78	1.62
	92.09	32.98	67.75	0.00	0.0624	10.89	479.3	409.18	0.0584	444.8	8.007	16.71	8.74	1.62
	93.10	32.93	67.75	0.00	0.0624	10.90	479.5	409.36	0.0585	446.2	8.031	16.76	8.78	1.62
	94.12	32.95	67.75	-0.00	0.0623	10.89	479.2	409.08	0.0581	441.9	7.954	16.60	8.64	1.62
	95.11	32.98	67.73	0.00	0.0624	10.89	479.1	409.21	0.0585	444.8	8.006	16.72	8.74	1.62
	96.10	32.96	67.73	0.00	0.0624	10.89	479.2	409.19	0.0583	443.0	7.974	16.65	8.68	1.62
	97.11	32.95	67.73	0.00	0.0624	10.90	479.4	409.44	0.0585	445.8	8.025	16.75	8.77	1.62
	98.09	33.00	67.73	0.00	0.0624	10.90	479.6	409.63	0.0587	449.0	8.082	16.87	8.88	1.62
	99.12	33.02	67.75	-0.00	0.0624	10.91	480.0	409.87	0.0590	453.1	8.155	17.02	9.01	1.62
	100.11	33.04	67.75	-0.00	0.0625	10.92	480.3	410.14	0.0589	451.1	8.120	16.95	8.95	1.62
	101.10	33.06	67.78	0.00	0.0625	10.92	480.6	410.28	0.0589	450.8	8.114	16.93	8.94	1.62
	102.09	33.10	67.78	0.00	0.0625	10.92	480.4	410.13	0.0589	450.5	8.109	16.92	8.93	1.62
	103.10	33.13	67.72	0.00	0.0625	10.92	480.3	410.43	0.0590	452.1	8.138	17.00	8.99	1.62
	104.10	33.16	67.73	0.00	0.0625	10.91	480.2	410.39	0.0591	453.5	8.164	17.05	9.03	1.62
	105.11	33.18	67.78	-0.00	0.0626	10.95	481.8	411.46	0.0600	462.6	8.327	17.38	9.33	1.62
	106.10	33.16	67.73	0.00	0.0626	10.94	481.2	411.25	0.0597	460.0	8.279	17.30	9.24	1.62
	107.09	33.13	67.73	0.00	0.0626	10.94	481.5	411.45	0.0599	462.6	8.327	17.39	9.33	1.62
	108.09	33.14	67.75	0.00	0.0625	10.93	481.0	410.85	0.0596	459.0	8.262	17.25	9.21	1.62
	109.09	33.17	67.73	0.00	0.0626	10.95	482.0	411.89	0.0601	464.7	8.364	17.47	9.39	1.62
	110.11	33.14	67.73	0.00	0.0626	10.94	481.5	411.43	0.0601	462.7	8.329	17.40	9.33	1.62
	111.12	33.12	67.73	-0.00	0.0626	10.95	481.7	411.57	0.0601	464.8	8.366	17.47	9.40	1.62
	112.10	33.15	67.73	0.00	0.0627	10.97	482.9	412.66	0.0606	470.6	8.471	17.70	9.58	1.62
	113.12	33.15	67.75	-0.00	0.0628	10.98	483.0	412.62	0.0609	470.2	8.464	17.67	9.57	1.62
	114.10	33.12	67.73	0.00	0.0627	10.97	482.8	412.53	0.0607	471.1	8.480	17.71	9.60	1.62
	115.11	33.19	67.75	-0.00	0.0627	10.96	482.3	412.10	0.0605	468.8	8.438	17.62	9.53	1.62
	116.10	33.16	67.73	0.00	0.0627	10.97	482.7	412.52	0.0608	470.5	8.469	17.69	9.58	1.62
	117.11	33.16	67.73	-0.00	0.0628	10.99	483.7	413.39	0.0613	477.3	8.592	17.95	9.79	1.62
	118.09	33.19	67.75	0.00	0.0628	10.99	483.6	413.18	0.0615	477.5	8.595	17.95	9.80	1.62
	119.11	33.16	67.77	-0.00	0.0629	11.01	484.5	413.78	0.0617	481.7	8.671	18.10	9.93	1.62
	120.09	33.14	67.75	0.00	0.0628	11.00	483.9	413.37	0.0615	479.3	8.627	18.01	9.85	1.62
	121.09	33.10	67.78	0.00	0.0628	10.98	483.2	412.53	0.0612	477.4	8.593	17.93	9.79	1.62
	122.09	33.18	67.75	0.00	0.0628	10.97	482.9	412.52	0.0611	475.5	8.558	17.87	9.74	1.62
	123.10	33.15	67.73	0.00	0.0628	10.98	483.3	412.98	0.0611	475.9	8.565	17.89	9.75	1.62
