Jul 29 2015 at 14:56:24
Frequency: 1.00Hz.
CO2
Zero:  Value:0.95  Date:18 Mar 2005	 at 07:22:33	
Span:  Value:1.00  Date:18 Mar 2005	 at 07:25:09	
H2O
Zero:  Value:0.71  Date:18 Mar 2005	 at 07:52:31	
Span:  Value:0.99  Date:18 Mar 2005	 at 11:44:01	
	Relative Time	Temperature	Pressure	Aux Input	CO2 Absorptance	CO2 mmol/m3	CO2 mg/m3	CO2 umol/mol	H2O Absorptance	H2O mmol/m3	H2O g/m3	H2O mmol/mol	H2O(°C)	Cooler Voltage
	0.45	36.56	73.80	0.00	0.0651	11.37	500.1	396.63	0.0728	521.6	9.389	18.20	11.29	1.74
	1.39	36.52	73.80	-0.00	0.0645	11.13	489.5	388.16	0.0769	626.0	11.267	21.84	14.07	1.74
	2.38	36.55	73.75	0.00	0.0645	11.16	491.0	389.66	0.0758	602.1	10.838	21.02	13.47	1.74
	3.38	36.53	73.75	0.00	0.0648	11.11	488.9	387.92	0.0739	614.0	11.051	21.44	13.77	1.74
	4.39	36.54	73.77	-0.00	0.0642	11.05	486.0	385.54	0.0760	638.9	11.500	22.30	14.39	1.74
	5.38	36.56	73.85	0.00	0.0642	11.04	485.8	384.98	0.0763	629.9	11.338	21.96	14.17	1.74
	6.39	36.55	73.80	-0.00	0.0644	11.06	486.5	385.78	0.0759	627.2	11.290	21.89	14.10	1.74
	7.39	36.56	73.80	0.00	0.0644	11.06	486.4	385.75	0.0755	624.5	11.241	21.79	14.04	1.74
	8.38	36.53	73.80	0.00	0.0646	11.11	489.0	387.76	0.0739	596.7	10.741	20.82	13.34	1.74
	9.38	36.56	73.77	0.00	0.0646	11.11	488.8	387.74	0.0739	602.1	10.837	21.01	13.47	1.74
	10.38	36.56	73.80	0.00	0.0648	11.15	490.7	389.13	0.0739	602.7	10.848	21.03	13.49	1.74
	11.38	36.58	73.80	0.00	0.0649	11.17	491.5	389.82	0.0739	601.5	10.828	20.99	13.46	1.74
	12.39	36.53	73.80	-0.00	0.0650	11.19	492.6	390.57	0.0730	591.6	10.649	20.64	13.20	1.74
	13.38	36.50	73.77	0.00	0.0650	11.21	493.3	391.29	0.0728	588.9	10.601	20.55	13.13	1.74
	14.39	36.59	73.80	-0.00	0.0650	11.19	492.5	390.63	0.0717	575.6	10.361	20.09	12.79	1.74
	15.38	36.55	73.75	0.00	0.0650	11.20	493.0	391.17	0.0712	571.9	10.294	19.97	12.69	1.74
	16.38	36.53	73.80	0.00	0.0650	11.20	492.6	390.59	0.0707	564.7	10.165	19.70	12.49	1.74
	17.38	36.55	73.77	-0.00	0.0650	11.18	491.9	390.17	0.0705	565.2	10.174	19.73	12.51	1.74
	18.38	36.59	73.82	0.00	0.0652	11.25	495.1	392.48	0.0704	561.6	10.108	19.59	12.41	1.74
	19.38	36.55	73.77	0.00	0.0649	11.19	492.3	390.55	0.0700	557.3	10.031	19.45	12.29	1.74
	20.38	36.59	73.80	0.00	0.0649	11.19	492.2	390.37	0.0702	559.1	10.064	19.51	12.34	1.74
	21.38	36.55	73.75	0.00	0.0650	11.20	492.8	391.07	0.0699	555.8	10.004	19.41	12.25	1.74
	22.38	36.55	73.80	0.00	0.0651	11.22	493.9	391.64	0.0698	557.1	10.028	19.44	12.29	1.75
	23.39	36.55	73.80	-0.00	0.0650	11.21	493.2	391.13	0.0700	555.7	10.002	19.39	12.25	1.74
	24.38	36.54	73.80	-0.00	0.0648	11.16	491.0	389.34	0.0716	579.1	10.423	20.20	12.88	1.74
	25.38	36.60	73.77	0.00	0.0647	11.14	490.2	388.94	0.0714	574.6	10.342	20.06	12.76	1.74
	26.38	36.59	73.77	0.00	0.0649	11.19	492.2	390.47	0.0704	561.1	10.100	19.59	12.40	1.74
	27.38	36.59	73.80	-0.00	0.0647	11.15	490.7	389.17	0.0710	564.3	10.157	19.69	12.48	1.74
	28.39	36.61	73.80	-0.00	0.0649	11.19	492.2	390.42	0.0702	560.5	10.088	19.56	12.38	1.75
	29.39	36.55	73.80	-0.00	0.0647	11.16	490.9	389.32	0.0710	561.5	10.107	19.59	12.41	1.74
	30.38	36.62	73.80	0.00	0.0646	11.10	488.4	387.34	0.0710	567.9	10.222	19.82	12.58	1.74
	31.36	36.60	73.77	0.00	0.0651	11.21	493.3	391.40	0.0698	553.7	9.966	19.33	12.20	1.74
	32.39	36.61	73.80	-0.00	0.0650	11.21	493.3	391.28	0.0701	556.6	10.018	19.42	12.28	1.74
	33.38	36.57	73.77	0.00	0.0651	11.21	493.3	391.31	0.0700	555.5	9.999	19.39	12.24	1.74
	34.38	36.65	73.80	0.00	0.0649	11.19	492.5	390.64	0.0702	558.4	10.052	19.49	12.33	1.75
	35.38	36.58	73.77	0.00	0.0651	11.23	494.2	392.10	0.0706	563.0	10.135	19.65	12.45	1.74
	36.39	36.57	73.80	0.00	0.0650	11.23	493.9	391.68	0.0702	560.8	10.094	19.57	12.39	1.74
	37.45	36.65	73.82	-0.00	0.0650	11.21	493.3	391.20	0.0702	557.7	10.039	19.46	12.31	1.74
	38.36	36.58	73.77	0.00	0.0650	11.20	492.8	390.95	0.0701	557.9	10.042	19.47	12.31	1.74
	39.38	36.61	73.80	0.00	0.0651	11.21	493.4	391.36	0.0704	560.0	10.080	19.54	12.37	1.75
	40.38	36.63	73.80	0.00	0.0650	11.22	493.6	391.55	0.0703	560.9	10.096	19.57	12.39	1.74
	41.38	36.58	73.80	-0.00	0.0650	11.21	493.0	391.01	0.0704	561.0	10.099	19.58	12.39	1.74
	42.39	36.61	73.80	-0.00	0.0649	11.18	491.7	389.99	0.0702	558.5	10.052	19.49	12.33	1.74
	43.39	36.61	73.80	-0.00	0.0651	11.22	493.8	391.67	0.0706	563.1	10.136	19.65	12.45	1.74
	44.38	36.58	73.80	-0.00	0.0650	11.21	493.1	391.06	0.0706	562.8	10.131	19.64	12.44	1.74
	45.38	36.60	73.80	-0.00	0.0649	11.18	492.1	390.26	0.0704	561.7	10.111	19.60	12.41	1.75
	46.39	36.60	73.80	-0.00	0.0649	11.19	492.5	390.60	0.0706	564.1	10.154	19.69	12.48	1.74
	47.38	36.58	73.80	0.00	0.0650	11.19	492.5	390.58	0.0708	564.4	10.160	19.70	12.49	1.74
	48.38	36.59	73.80	0.00	0.0650	11.19	492.5	390.57	0.0709	566.5	10.198	19.77	12.54	1.75
	49.38	36.65	73.77	0.00	0.0649	11.19	492.2	390.56	0.0712	569.1	10.245	19.87	12.62	1.74
	50.38	36.62	73.80	0.00	0.0649	11.19	492.5	390.62	0.0713	571.5	10.288	19.95	12.68	1.74
	51.38	36.63	73.77	-0.00	0.0648	11.15	490.4	389.14	0.0717	574.5	10.341	20.06	12.76	1.75
	52.38	36.59	73.75	-0.00	0.0649	11.19	492.4	390.75	0.0720	580.2	10.443	20.26	12.91	1.75
	53.38	36.59	73.80	0.00	0.0649	11.17	491.5	389.83	0.0719	578.2	10.407	20.18	12.85	1.74
	54.41	36.60	73.77	-0.00	0.0649	11.18	492.1	390.40	0.0724	583.1	10.495	20.35	12.98	1.74
	55.39	36.63	73.82	-0.00	0.0646	11.14	490.2	388.67	0.0721	582.8	10.490	20.33	12.98	1.74
	56.41	36.60	73.80	-0.00	0.0647	11.16	491.0	389.40	0.0724	584.9	10.528	20.41	13.03	1.74
	57.41	36.63	73.77	-0.00	0.0647	11.12	489.4	388.30	0.0726	587.7	10.579	20.52	13.11	1.75
	58.39	36.60	73.77	0.00	0.0644	11.08	487.3	386.63	0.0736	598.9	10.780	20.91	13.39	1.75
	59.39	36.58	73.80	-0.00	0.0642	11.04	485.8	385.23	0.0739	601.8	10.832	21.00	13.47	1.75
	60.41	36.60	73.77	-0.00	0.0643	11.05	486.3	385.80	0.0740	603.3	10.859	21.06	13.51	1.74
	61.47	36.63	73.77	-0.00	0.0641	11.01	484.6	384.49	0.0744	608.0	10.943	21.23	13.63	1.75
	62.39	36.64	73.80	0.00	0.0643	11.04	485.8	385.34	0.0738	604.8	10.886	21.11	13.55	1.75
	63.39	36.65	73.80	0.00	0.0645	11.09	487.8	386.96	0.0727	590.0	10.620	20.59	13.17	1.75
	64.39	36.65	73.74	0.00	0.0646	11.10	488.5	387.80	0.0734	595.6	10.721	20.80	13.31	1.75
	65.39	36.65	73.80	-0.00	0.0646	11.11	489.0	387.91	0.0732	593.0	10.674	20.70	13.25	1.75
	66.39	36.64	73.80	0.00	0.0646	11.12	489.2	388.08	0.0733	593.9	10.691	20.73	13.27	1.75
	67.39	36.62	73.80	0.00	0.0645	11.12	489.2	388.03	0.0733	594.7	10.705	20.76	13.29	1.75
	68.39	36.65	73.82	0.00	0.0647	11.12	489.3	388.01	0.0740	603.9	10.869	21.07	13.52	1.75
	69.39	36.65	73.77	-0.00	0.0647	11.14	490.2	388.97	0.0739	603.1	10.855	21.06	13.50	1.75
	70.41	36.60	73.77	-0.00	0.0647	11.14	490.4	389.05	0.0742	605.7	10.902	21.14	13.57	1.75
	71.41	36.65	73.77	-0.00	0.0646	11.12	489.3	388.28	0.0742	606.1	10.909	21.16	13.58	1.75
	72.39	36.65	73.80	0.00	0.0645	11.10	488.2	387.27	0.0743	606.0	10.907	21.15	13.58	1.75
	73.38	36.65	73.77	0.00	0.0645	11.09	488.0	387.24	0.0743	607.7	10.939	21.22	13.62	1.75
	74.41	36.65	73.80	-0.00	0.0645	11.09	487.9	387.02	0.0748	611.5	11.006	21.34	13.72	1.75
	75.39	36.64	73.77	0.00	0.0643	11.07	487.1	386.54	0.0746	610.5	10.989	21.31	13.69	1.75
	76.38	36.67	73.80	0.00	0.0645	11.07	487.0	386.31	0.0752	614.9	11.068	21.46	13.80	1.75
	77.39	36.65	73.77	0.00	0.0645	11.10	488.2	387.42	0.0754	620.6	11.170	21.67	13.94	1.75
	78.39	36.65	73.74	0.00	0.0644	11.10	488.3	387.61	0.0754	622.0	11.195	21.72	13.98	1.75
	79.39	36.65	73.77	-0.00	0.0641	11.01	484.4	384.39	0.0766	635.1	11.432	22.18	14.30	1.75
	80.39	36.65	73.80	-0.00	0.0641	10.99	483.5	383.57	0.0763	633.3	11.400	22.11	14.26	1.75
	81.41	36.65	73.80	-0.00	0.0643	11.06	486.8	386.19	0.0760	629.4	11.328	21.97	14.16	1.75
	82.39	36.65	73.77	-0.00	0.0642	11.02	484.9	384.77	0.0763	632.0	11.376	22.07	14.23	1.75
	83.39	36.65	73.80	-0.00	0.0643	11.05	486.0	385.51	0.0761	630.2	11.344	22.00	14.18	1.75
	84.39	36.65	73.80	0.00	0.0645	11.09	487.8	386.97	0.0758	626.0	11.269	21.85	14.08	1.75
	85.39	36.64	73.80	0.00	0.0644	11.08	487.7	386.85	0.0759	626.9	11.285	21.88	14.10	1.75
	86.39	36.62	73.77	0.00	0.0644	11.08	487.7	386.95	0.0758	625.7	11.263	21.84	14.07	1.75
	87.38	36.66	73.77	0.00	0.0642	11.02	484.8	384.73	0.0764	637.7	11.479	22.27	14.36	1.75
	88.41	36.68	73.77	-0.00	0.0643	11.06	486.5	386.05	0.0764	633.3	11.399	22.11	14.26	1.75
	89.39	36.64	73.80	-0.00	0.0644	11.08	487.6	386.81	0.0763	631.3	11.364	22.03	14.21	1.75
	90.38	36.65	73.80	0.00	0.0644	11.06	486.8	386.17	0.0763	631.7	11.371	22.05	14.22	1.75
	91.41	36.67	73.77	-0.00	0.0645	11.09	487.8	387.11	0.0765	633.7	11.407	22.13	14.27	1.75
	92.47	36.70	73.77	-0.00	0.0644	11.08	487.5	386.87	0.0764	633.9	11.410	22.14	14.27	1.75
	93.39	36.65	73.77	-0.00	0.0644	11.06	486.8	386.33	0.0766	634.9	11.428	22.17	14.29	1.75
	94.39	36.67	73.77	-0.00	0.0644	11.08	487.7	387.02	0.0771	640.8	11.535	22.38	14.44	1.75
	95.41	36.68	73.77	-0.00	0.0644	11.07	487.2	386.64	0.0770	641.6	11.549	22.40	14.46	1.75
	96.39	36.68	73.77	-0.00	0.0644	11.05	486.4	385.98	0.0772	642.6	11.566	22.44	14.48	1.75
	97.38	36.68	73.72	0.00	0.0643	11.07	487.1	386.79	0.0772	644.4	11.600	22.52	14.53	1.75
	98.39	36.67	73.77	0.00	0.0642	11.03	485.4	385.16	0.0772	641.3	11.544	22.39	14.45	1.75
	99.39	36.69	73.77	0.00	0.0643	11.07	486.9	386.38	0.0776	646.7	11.641	22.58	14.58	1.75
	100.38	36.67	73.77	0.00	0.0643	11.05	486.3	385.86	0.0777	647.8	11.661	22.62	14.61	1.75
	101.38	36.67	73.77	0.00	0.0643	11.05	486.3	385.88	0.0781	652.1	11.739	22.77	14.71	1.75
	102.39	36.69	73.77	0.00	0.0643	11.05	486.3	385.93	0.0780	652.6	11.747	22.79	14.72	1.75
	103.45	36.70	73.80	0.00	0.0643	11.06	486.6	386.05	0.0781	652.7	11.749	22.79	14.73	1.75
	104.38	36.69	73.75	0.00	0.0635	10.88	478.7	380.06	0.0796	673.2	12.117	23.51	15.21	1.75
	105.39	36.71	73.80	0.00	0.0640	10.96	482.2	382.55	0.0784	659.4	11.870	23.02	14.89	1.75
	106.39	36.68	73.80	-0.00	0.0642	11.02	484.9	384.72	0.0783	656.2	11.811	22.90	14.81	1.75
	107.38	36.64	73.77	0.00	0.0642	11.04	485.7	385.40	0.0783	657.1	11.828	22.94	14.83	1.75
	108.39	36.69	73.80	-0.00	0.0642	11.04	485.9	385.50	0.0786	660.1	11.882	23.04	14.90	1.75
	109.47	36.69	73.77	-0.00	0.0644	11.07	486.9	386.41	0.0792	668.4	12.032	23.34	15.10	1.75
	110.39	36.71	73.80	-0.00	0.0642	11.03	485.5	385.17	0.0788	662.8	11.931	23.14	14.97	1.75
	111.39	36.72	73.77	-0.00	0.0642	11.04	485.7	385.50	0.0791	666.1	11.990	23.26	15.04	1.75
	112.39	36.69	73.82	0.00	0.0640	11.03	485.5	385.05	0.0800	670.3	12.065	23.39	15.14	1.75
	113.39	36.68	73.77	0.00	0.0642	11.03	485.4	385.21	0.0794	669.6	12.053	23.38	15.12	1.75
	114.38	36.72	73.77	0.00	0.0640	11.02	484.7	384.69	0.0797	667.6	12.017	23.31	15.08	1.75
	115.38	36.72	73.72	0.00	0.0639	10.97	482.5	383.24	0.0802	676.3	12.174	23.64	15.28	1.75
	116.39	36.72	73.80	0.00	0.0638	10.95	481.9	382.38	0.0809	689.1	12.404	24.06	15.57	1.75
	117.39	36.75	73.82	-0.00	0.0639	10.98	483.1	383.22	0.0805	683.0	12.293	23.84	15.43	1.75
	118.39	36.74	73.77	0.00	0.0639	10.96	482.1	382.66	0.0796	670.0	12.059	23.40	15.13	1.75
	119.41	36.74	73.77	-0.00	0.0637	10.93	480.8	381.60	0.0806	684.9	12.328	23.92	15.48	1.75
	120.39	36.74	73.74	0.00	0.0639	10.95	481.9	382.61	0.0804	684.7	12.324	23.92	15.47	1.75
	121.38	36.74	73.75	0.00	0.0641	11.00	484.0	384.33	0.0800	677.9	12.202	23.68	15.32	1.75
	122.38	36.73	73.77	0.00	0.0641	11.01	484.2	384.35	0.0799	677.3	12.191	23.65	15.30	1.75
	123.39	36.75	73.80	-0.00	0.0635	10.93	481.0	381.67	0.0818	691.6	12.449	24.15	15.63	1.75
	124.38	36.71	73.80	0.00	0.0636	10.87	478.2	379.40	0.0817	701.9	12.634	24.50	15.86	1.75
	125.38	36.73	73.77	0.00	0.0637	10.91	480.2	381.13	0.0810	691.6	12.448	24.15	15.63	1.75
	126.39	36.73	73.75	0.00	0.0638	10.93	480.9	381.85	0.0811	690.1	12.422	24.11	15.59	1.76
	127.39	36.71	73.80	0.00	0.0641	10.99	483.4	383.52	0.0805	683.5	12.303	23.86	15.44	1.76
	128.38	36.79	73.77	0.00	0.0640	11.01	484.4	384.52	0.0806	686.0	12.347	23.96	15.50	1.75
	129.38	36.73	73.74	0.00	0.0641	11.00	484.2	384.43	0.0810	688.9	12.400	24.07	15.57	1.75
	130.39	36.73	73.82	-0.00	0.0641	11.01	484.6	384.39	0.0811	691.7	12.451	24.14	15.63	1.76
	131.38	36.79	73.80	0.00	0.0642	11.02	484.8	384.77	0.0811	691.8	12.453	24.16	15.64	1.76
