Jul 29 2015 at 10:12:25
Frequency: 1.00Hz.
CO2
Zero:  Value:0.95  Date:18 Mar 2005	 at 07:22:33	
Span:  Value:1.00  Date:18 Mar 2005	 at 07:25:09	
H2O
Zero:  Value:0.71  Date:18 Mar 2005	 at 07:52:31	
Span:  Value:0.99  Date:18 Mar 2005	 at 11:44:01	
	Relative Time	Temperature	Pressure	Aux Input	CO2 Absorptance	CO2 mmol/m3	CO2 mg/m3	CO2 umol/mol	H2O Absorptance	H2O mmol/m3	H2O g/m3	H2O mmol/mol	H2O(°C)	Cooler Voltage
	0.77	25.09	73.41	0.00	0.0613	10.41	458.0	351.58	0.0978	925.3	16.655	31.25	19.64	1.60
	1.77	25.09	73.41	-0.00	0.0612	10.39	457.0	350.84	0.0977	923.5	16.623	31.20	19.61	1.60
	2.77	25.09	73.43	-0.00	0.0609	10.33	454.5	348.78	0.0973	914.9	16.468	30.89	19.45	1.60
	3.77	25.07	73.46	-0.00	0.0611	10.36	456.0	349.82	0.0971	912.8	16.431	30.81	19.42	1.60
	4.77	25.09	73.41	0.00	0.0611	10.38	456.6	350.51	0.0965	908.9	16.360	30.70	19.35	1.61
	5.77	25.11	73.41	0.00	0.0612	10.38	456.6	350.59	0.0965	904.8	16.287	30.57	19.28	1.61
	6.84	25.11	73.43	-0.00	0.0610	10.34	455.1	349.28	0.0967	914.0	16.452	30.87	19.44	1.61
	7.75	25.13	73.41	0.00	0.0609	10.35	455.3	349.60	0.0977	919.8	16.556	31.07	19.54	1.61
	8.77	25.12	73.41	0.00	0.0609	10.35	455.2	349.49	0.0981	922.5	16.605	31.17	19.59	1.61
	9.75	25.12	73.41	0.00	0.0610	10.34	455.2	349.46	0.0984	933.5	16.803	31.54	19.78	1.61
	10.77	25.12	73.41	0.00	0.0611	10.38	456.6	350.57	0.0976	922.3	16.602	31.16	19.59	1.61
	11.77	25.13	73.41	-0.00	0.0616	10.48	460.9	353.89	0.0956	894.1	16.094	30.21	19.09	1.61
	12.78	25.15	73.41	0.00	0.0620	10.54	463.6	355.96	0.0939	875.7	15.762	29.59	18.76	1.61
	13.77	25.13	73.41	-0.00	0.0620	10.56	464.8	356.85	0.0937	864.8	15.567	29.22	18.56	1.61
	14.75	25.12	73.41	-0.00	0.0619	10.53	463.5	355.90	0.0951	881.5	15.866	29.78	18.86	1.61
	15.77	25.14	73.41	0.00	0.0619	10.54	464.0	356.26	0.0955	891.6	16.049	30.12	19.04	1.61
	16.77	25.16	73.41	-0.00	0.0622	10.62	467.2	358.74	0.0943	874.1	15.734	29.53	18.73	1.61
	17.77	25.15	73.43	0.00	0.0624	10.62	467.5	358.81	0.0925	864.6	15.563	29.20	18.55	1.61
	18.75	25.16	73.41	0.00	0.0623	10.65	468.4	359.67	0.0925	840.4	15.127	28.39	18.10	1.61
	19.83	25.16	73.41	0.00	0.0624	10.67	469.4	360.46	0.0920	839.0	15.102	28.35	18.07	1.61
	20.77	25.16	73.41	-0.00	0.0621	10.59	466.1	357.94	0.0930	851.7	15.331	28.78	18.31	1.61
	21.77	25.16	73.41	0.00	0.0623	10.61	467.0	358.60	0.0920	843.0	15.174	28.48	18.15	1.61
	22.77	25.16	73.36	-0.00	0.0623	10.64	468.1	359.72	0.0914	830.1	14.942	28.07	17.90	1.61
	23.77	25.20	73.41	-0.00	0.0625	10.67	469.3	360.41	0.0911	824.5	14.841	27.86	17.80	1.61
	24.77	25.18	73.38	-0.00	0.0623	10.64	468.2	359.71	0.0918	835.8	15.045	28.25	18.01	1.61
	25.77	25.18	73.41	0.00	0.0621	10.60	466.4	358.20	0.0923	841.3	15.143	28.43	18.12	1.61
	26.75	25.20	73.43	0.00	0.0617	10.48	461.1	353.97	0.0942	867.7	15.619	29.31	18.61	1.61
	27.84	25.20	73.41	-0.00	0.0616	10.48	461.2	354.17	0.0945	876.1	15.770	29.60	18.77	1.61
	28.75	25.20	73.41	0.00	0.0616	10.47	460.5	353.64	0.0948	881.5	15.866	29.79	18.86	1.61
	29.75	25.14	73.41	0.00	0.0617	10.49	461.4	354.25	0.0943	874.5	15.742	29.55	18.73	1.61
	30.75	25.20	73.41	0.00	0.0620	10.55	464.0	356.38	0.0930	856.1	15.410	28.93	18.40	1.61
	31.77	25.18	73.43	-0.00	0.0619	10.54	463.7	355.97	0.0929	852.8	15.350	28.80	18.33	1.61
	32.77	25.20	73.43	0.00	0.0618	10.53	463.3	355.70	0.0929	854.4	15.379	28.86	18.36	1.61
	33.75	25.22	73.41	0.00	0.0624	10.63	467.8	359.32	0.0914	833.6	15.005	28.17	17.97	1.61
	34.77	25.22	73.41	0.00	0.0623	10.65	468.5	359.84	0.0918	833.4	15.001	28.16	17.97	1.61
	35.75	25.20	73.41	0.00	0.0617	10.49	461.6	354.49	0.0933	863.9	15.550	29.19	18.54	1.61
	36.77	25.22	73.41	-0.00	0.0623	10.61	466.7	358.47	0.0920	839.5	15.111	28.37	18.09	1.61
	37.75	25.21	73.41	0.00	0.0620	10.58	465.5	357.48	0.0930	849.6	15.293	28.71	18.28	1.61
	38.83	25.24	73.41	0.00	0.0619	10.54	463.8	356.27	0.0935	863.3	15.539	29.18	18.53	1.61
	39.75	25.24	73.43	0.00	0.0622	10.58	465.6	357.53	0.0925	851.2	15.321	28.76	18.31	1.61
	40.77	25.24	73.41	-0.00	0.0624	10.64	468.2	359.61	0.0918	838.6	15.095	28.34	18.07	1.61
	41.77	25.23	73.43	-0.00	0.0623	10.65	468.6	359.77	0.0923	842.9	15.172	28.47	18.15	1.61
	42.77	25.24	73.38	0.00	0.0624	10.65	468.8	360.16	0.0919	839.3	15.107	28.37	18.08	1.61
	43.75	25.24	73.41	0.00	0.0624	10.64	468.3	359.66	0.0924	842.9	15.172	28.49	18.15	1.61
	44.77	25.25	73.38	0.00	0.0620	10.58	465.6	357.73	0.0924	849.0	15.282	28.70	18.27	1.61
	45.77	25.25	73.41	0.00	0.0622	10.60	466.5	358.32	0.0917	837.9	15.081	28.32	18.06	1.61
	46.75	25.25	73.43	0.00	0.0626	10.67	469.3	360.35	0.0907	820.8	14.775	27.73	17.73	1.61
	47.77	25.25	73.43	-0.00	0.0627	10.71	471.3	361.89	0.0903	818.6	14.735	27.66	17.69	1.61
	48.75	25.25	73.41	0.00	0.0627	10.70	470.9	361.70	0.0907	821.9	14.794	27.78	17.75	1.61
	49.75	25.27	73.38	0.00	0.0627	10.71	471.3	362.18	0.0903	817.2	14.709	27.63	17.66	1.61
	50.75	25.27	73.41	0.00	0.0629	10.76	473.5	363.70	0.0894	806.1	14.509	27.24	17.44	1.62
	51.75	25.28	73.43	0.00	0.0625	10.70	470.6	361.37	0.0906	814.8	14.666	27.53	17.61	1.62
	52.77	25.27	73.41	-0.00	0.0621	10.57	465.2	357.33	0.0917	835.8	15.044	28.25	18.02	1.61
	53.75	25.27	73.41	0.00	0.0621	10.61	466.7	358.53	0.0916	833.9	15.011	28.19	17.98	1.61
	54.77	25.29	73.41	-0.00	0.0621	10.57	465.0	357.19	0.0919	839.7	15.115	28.38	18.09	1.61
	55.83	25.25	73.41	0.00	0.0627	10.68	470.0	361.01	0.0905	822.4	14.804	27.80	17.76	1.61
	56.77	25.29	73.38	-0.00	0.0628	10.76	473.2	363.67	0.0901	813.5	14.644	27.51	17.59	1.62
	57.77	25.29	73.41	-0.00	0.0626	10.71	471.4	362.12	0.0904	819.5	14.752	27.70	17.71	1.62
	58.75	25.29	73.41	0.00	0.0628	10.72	471.7	362.39	0.0901	812.1	14.617	27.45	17.56	1.61
	59.77	25.31	73.41	0.00	0.0629	10.75	473.1	363.46	0.0897	807.5	14.535	27.30	17.47	1.61
	60.75	25.30	73.41	0.00	0.0630	10.76	473.6	363.87	0.0899	809.5	14.572	27.36	17.51	1.61
	61.75	25.31	73.41	0.00	0.0630	10.79	474.8	364.76	0.0901	812.5	14.625	27.47	17.57	1.61
	62.77	25.29	73.38	-0.00	0.0630	10.78	474.2	364.45	0.0903	814.7	14.664	27.55	17.61	1.62
	63.77	25.30	73.41	-0.00	0.0626	10.71	471.0	361.86	0.0909	824.7	14.845	27.88	17.81	1.61
	64.75	25.29	73.43	0.00	0.0626	10.71	471.1	361.74	0.0910	824.8	14.846	27.87	17.81	1.62
	65.75	25.33	73.41	0.00	0.0627	10.70	470.9	361.77	0.0904	818.3	14.729	27.66	17.68	1.62
	66.75	25.33	73.41	0.00	0.0628	10.72	471.7	362.41	0.0904	818.7	14.737	27.68	17.69	1.62
	67.75	25.33	73.41	-0.00	0.0627	10.72	471.8	362.48	0.0906	820.0	14.759	27.72	17.72	1.62
	68.77	25.33	73.41	-0.00	0.0627	10.72	471.6	362.34	0.0905	820.7	14.773	27.74	17.73	1.62
	69.75	25.32	73.41	0.00	0.0628	10.72	471.9	362.56	0.0906	821.3	14.784	27.77	17.74	1.62
	70.77	25.30	73.38	-0.00	0.0626	10.69	470.6	361.64	0.0906	820.8	14.774	27.75	17.73	1.62
	71.75	25.34	73.41	0.00	0.0626	10.70	470.9	361.81	0.0907	821.8	14.793	27.78	17.75	1.62
	72.75	25.34	73.41	0.00	0.0626	10.68	469.9	361.08	0.0909	823.4	14.822	27.84	17.79	1.62
	73.77	25.34	73.43	-0.00	0.0625	10.67	469.7	360.76	0.0906	823.7	14.827	27.84	17.79	1.62
	74.75	25.33	73.41	0.00	0.0627	10.72	471.8	362.46	0.0905	816.8	14.702	27.61	17.66	1.62
	75.75	25.34	73.43	0.00	0.0628	10.73	472.3	362.76	0.0906	820.1	14.762	27.72	17.72	1.62
	76.77	25.32	73.43	0.00	0.0627	10.74	472.5	362.88	0.0908	822.3	14.802	27.79	17.76	1.62
	77.75	25.40	73.41	0.00	0.0627	10.73	472.3	362.94	0.0909	824.3	14.837	27.87	17.80	1.62
	78.75	25.34	73.43	-0.00	0.0627	10.71	471.5	362.12	0.0912	829.1	14.923	28.02	17.89	1.62
	79.75	25.36	73.43	-0.00	0.0627	10.72	471.7	362.30	0.0910	827.6	14.897	27.97	17.87	1.62
	80.84	25.36	73.41	-0.00	0.0627	10.72	471.6	362.41	0.0910	825.5	14.860	27.91	17.83	1.62
	81.77	25.38	73.41	-0.00	0.0629	10.74	472.4	362.98	0.0911	827.6	14.898	27.98	17.87	1.62
	82.75	25.36	73.43	0.00	0.0627	10.72	471.8	362.41	0.0910	826.8	14.882	27.94	17.85	1.62
	83.75	25.36	73.41	0.00	0.0627	10.72	471.8	362.53	0.0909	824.6	14.843	27.88	17.81	1.62
	84.75	25.38	73.41	0.00	0.0628	10.74	472.5	363.05	0.0905	819.5	14.751	27.71	17.71	1.62
	85.75	25.37	73.38	0.00	0.0628	10.73	472.3	363.08	0.0901	815.5	14.679	27.58	17.63	1.62
	86.75	25.38	73.41	0.00	0.0627	10.71	471.1	362.03	0.0899	812.1	14.617	27.46	17.57	1.62
	87.77	25.38	73.43	0.00	0.0627	10.71	471.2	361.94	0.0900	811.7	14.611	27.43	17.56	1.62
	88.77	25.40	73.38	-0.00	0.0627	10.70	470.8	361.90	0.0903	815.4	14.677	27.58	17.63	1.62
	89.77	25.40	73.41	-0.00	0.0627	10.71	471.1	362.02	0.0908	821.1	14.779	27.76	17.74	1.62
	90.77	25.39	73.43	-0.00	0.0628	10.72	471.8	362.47	0.0910	824.9	14.848	27.88	17.82	1.62
	91.75	25.39	73.41	0.00	0.0627	10.72	471.5	362.33	0.0911	827.1	14.887	27.97	17.86	1.62
	92.75	25.40	73.41	-0.00	0.0627	10.72	471.8	362.55	0.0910	827.8	14.901	27.99	17.87	1.62
	93.75	25.40	73.46	-0.00	0.0628	10.74	472.4	362.80	0.0911	827.4	14.894	27.96	17.87	1.62
	94.77	25.40	73.38	-0.00	0.0629	10.75	473.0	363.66	0.0911	826.7	14.881	27.96	17.85	1.62
	95.75	25.40	73.43	-0.00	0.0627	10.75	472.9	363.27	0.0904	817.0	14.705	27.61	17.66	1.62
	96.77	25.42	73.41	-0.00	0.0627	10.72	471.8	362.62	0.0907	822.4	14.804	27.81	17.77	1.62
	97.75	25.42	73.41	0.00	0.0628	10.74	472.4	363.02	0.0908	825.4	14.857	27.91	17.83	1.62
	98.75	25.42	73.41	0.00	0.0628	10.74	472.6	363.23	0.0907	823.0	14.813	27.83	17.78	1.62
	99.75	25.43	73.41	-0.00	0.0630	10.78	474.2	364.44	0.0902	818.4	14.731	27.67	17.69	1.62
	100.77	25.42	73.41	-0.00	0.0628	10.76	473.7	364.02	0.0902	813.7	14.647	27.52	17.60	1.62
	101.75	25.41	73.41	-0.00	0.0628	10.73	472.1	362.83	0.0901	815.2	14.674	27.57	17.63	1.62
	102.77	25.45	73.41	-0.00	0.0627	10.72	471.7	362.56	0.0904	816.7	14.701	27.62	17.66	1.62
	103.75	25.46	73.41	-0.00	0.0625	10.69	470.4	361.55	0.0910	825.8	14.865	27.93	17.84	1.62
	104.75	25.43	73.38	0.00	0.0628	10.73	472.0	362.89	0.0910	826.6	14.879	27.96	17.85	1.62
	105.77	25.45	73.41	-0.00	0.0627	10.70	471.0	361.99	0.0911	826.5	14.877	27.95	17.85	1.62
	106.77	25.42	73.41	-0.00	0.0627	10.71	471.3	362.23	0.0912	828.4	14.911	28.01	17.88	1.62
	107.77	25.43	73.41	-0.00	0.0627	10.71	471.4	362.28	0.0910	826.1	14.869	27.94	17.84	1.62
	108.77	25.45	73.41	-0.00	0.0627	10.71	471.4	362.31	0.0914	832.0	14.976	28.14	17.96	1.62
	109.77	25.47	73.41	0.00	0.0627	10.73	472.2	362.97	0.0914	831.9	14.974	28.14	17.95	1.62
	110.73	25.47	73.41	0.00	0.0627	10.73	472.3	363.07	0.0913	831.8	14.972	28.13	17.95	1.62
	111.75	25.47	73.43	0.00	0.0628	10.72	471.9	362.59	0.0910	826.2	14.871	27.93	17.84	1.62
	112.75	25.47	73.41	0.00	0.0627	10.71	471.4	362.35	0.0912	827.6	14.896	27.99	17.87	1.62
	113.75	25.49	73.41	0.00	0.0626	10.69	470.5	361.69	0.0916	835.5	15.040	28.26	18.02	1.62
	114.81	25.47	73.43	0.00	0.0627	10.72	471.6	362.42	0.0915	832.8	14.990	28.16	17.97	1.63
	115.75	25.47	73.41	0.00	0.0625	10.69	470.4	361.60	0.0922	843.1	15.176	28.52	18.17	1.62
	116.75	25.48	73.41	-0.00	0.0625	10.67	469.6	360.97	0.0923	843.6	15.185	28.53	18.18	1.62
	117.77	25.48	73.41	-0.00	0.0624	10.67	469.4	360.80	0.0922	843.6	15.184	28.53	18.18	1.62
	118.75	25.48	73.43	0.00	0.0626	10.69	470.4	361.45	0.0916	834.2	15.015	28.20	18.00	1.62
	119.75	25.49	73.43	0.00	0.0627	10.71	471.3	362.19	0.0915	833.9	15.009	28.19	17.99	1.62
	120.75	25.49	73.41	0.00	0.0629	10.76	473.5	364.02	0.0914	831.4	14.965	28.12	17.95	1.63
	121.77	25.51	73.41	-0.00	0.0627	10.71	471.1	362.20	0.0916	835.9	15.045	28.27	18.03	1.62
	122.83	25.49	73.41	-0.00	0.0626	10.69	470.6	361.73	0.0920	838.8	15.099	28.37	18.09	1.62
	123.75	25.51	73.41	0.00	0.0625	10.67	469.3	360.75	0.0928	852.3	15.341	28.83	18.34	1.62
	124.75	25.49	73.41	0.00	0.0626	10.71	471.1	362.15	0.0921	842.9	15.173	28.51	18.17	1.62
	125.77	25.51	73.41	-0.00	0.0628	10.75	472.9	363.53	0.0908	825.1	14.852	27.91	17.83	1.63
	126.75	25.51	73.41	-0.00	0.0629	10.76	473.3	363.83	0.0907	820.8	14.774	27.76	17.74	1.62
	127.73	25.51	73.41	0.00	0.0628	10.74	472.6	363.34	0.0912	829.5	14.931	28.06	17.91	1.63
	128.75	25.52	73.41	0.00	0.0628	10.73	472.3	363.11	0.0916	833.3	15.000	28.19	17.98	1.62
	129.75	25.52	73.41	0.00	0.0628	10.73	472.2	363.07	0.0918	837.2	15.069	28.32	18.06	1.63
	130.75	25.52	73.41	0.00	0.0628	10.73	472.0	362.85	0.0921	841.4	15.146	28.46	18.14	1.63
	131.75	25.51	73.41	0.00	0.0626	10.71	471.3	362.30	0.0925	845.2	15.213	28.59	18.21	1.63
	132.77	25.52	73.41	0.00	0.0624	10.65	468.8	360.40	0.0941	869.9	15.658	29.43	18.67	1.63
	133.75	25.52	73.41	0.00	0.0624	10.66	469.0	360.54	0.0937	864.1	15.554	29.23	18.56	1.63
	134.77	25.55	73.41	-0.00	0.0624	10.66	468.9	360.50	0.0934	860.7	15.493	29.12	18.50	1.63
	135.75	25.51	73.41	0.00	0.0626	10.67	469.3	360.82	0.0930	856.0	15.408	28.95	18.41	1.63
	136.75	25.54	73.41	0.00	0.0624	10.66	469.1	360.65	0.0936	861.2	15.501	29.13	18.51	1.62
	137.75	25.54	73.41	-0.00	0.0624	10.64	468.3	360.09	0.0937	864.6	15.563	29.25	18.57	1.63
	138.75	25.54	73.43	0.00	0.0622	10.62	467.1	359.00	0.0939	867.9	15.622	29.35	18.63	1.63
	139.75	25.56	73.41	0.00	0.0622	10.62	467.2	359.25	0.0940	868.5	15.632	29.38	18.64	1.63
	140.74	25.54	73.41	0.00	0.0621	10.57	465.3	357.73	0.0947	879.5	15.832	29.75	18.85	1.63
	141.75	25.53	73.41	0.00	0.0622	10.61	467.0	359.01	0.0941	868.1	15.626	29.37	18.64	1.63
	142.75	25.56	73.41	0.00	0.0624	10.65	468.7	360.35	0.0944	869.6	15.652	29.42	18.67	1.63
	143.77	25.54	73.41	-0.00	0.0625	10.64	468.2	360.00	0.0942	860.4	15.487	29.11	18.49	1.63
	144.74	25.56	73.41	0.00	0.0626	10.67	469.7	361.15	0.0931	856.7	15.421	28.98	18.43	1.63
	145.75	25.58	73.43	-0.00	0.0626	10.70	470.7	361.81	0.0928	852.9	15.351	28.85	18.36	1.63
	146.74	25.56	73.41	0.00	0.0626	10.70	470.6	361.85	0.0922	842.9	15.173	28.52	18.17	1.63
	147.75	25.56	73.43	0.00	0.0624	10.65	468.8	360.34	0.0939	860.6	15.491	29.10	18.50	1.63
