Jul 29 2015 at 13:40:09
Frequency: 1.00Hz.
CO2
Zero:  Value:0.95  Date:18 Mar 2005	 at 07:22:33	
Span:  Value:1.00  Date:18 Mar 2005	 at 07:25:09	
H2O
Zero:  Value:0.71  Date:18 Mar 2005	 at 07:52:31	
Span:  Value:0.99  Date:18 Mar 2005	 at 11:44:01	
	Relative Time	Temperature	Pressure	Aux Input	CO2 Absorptance	CO2 mmol/m3	CO2 mg/m3	CO2 umol/mol	H2O Absorptance	H2O mmol/m3	H2O g/m3	H2O mmol/mol	H2O(°C)	Cooler Voltage
	0.34	36.43	73.82	0.00	0.0659	11.41	502.1	397.83	0.0514	362.7	6.529	12.65	5.92	1.72
	1.34	36.46	73.85	0.00	0.0659	11.42	502.5	398.04	0.0513	357.0	6.426	12.44	5.69	1.72
	2.34	36.39	73.85	0.00	0.0659	11.40	501.6	397.27	0.0517	361.8	6.512	12.61	5.88	1.72
	3.34	36.40	73.85	0.00	0.0663	11.49	505.4	400.28	0.0480	336.9	6.063	11.74	4.85	1.72
	4.36	36.40	73.87	-0.00	0.0654	11.06	486.5	385.20	0.0457	304.0	5.471	10.59	3.39	1.72
	5.34	36.42	73.87	0.00	0.0661	11.45	503.7	398.84	0.0478	321.4	5.785	11.20	4.18	1.72
	6.33	36.50	73.85	0.00	0.0655	11.27	495.8	392.82	0.0521	358.7	6.457	12.51	5.76	1.72
	7.34	36.51	73.85	0.00	0.0691	12.05	530.3	420.18	0.0488	336.2	6.052	11.72	4.83	1.72
	8.36	36.55	73.85	0.00	0.0760	11.89	522.9	414.40	0.0450	275.8	4.964	9.62	2.03	1.72
	9.34	36.59	73.85	0.00	0.0701	13.03	573.3	454.37	0.0552	249.3	4.487	8.69	0.62	1.72
	10.34	36.54	73.85	0.00	0.0667	11.34	499.1	395.46	0.0587	391.7	7.050	13.66	7.04	1.72
	11.34	36.57	73.85	0.00	0.0798	14.63	643.8	510.23	0.0085	101.6	1.829	3.54	-11.19	1.72
	12.36	36.53	73.82	0.00	0.0818	13.69	602.5	477.57	0.0169	44.8	0.806	1.56	-21.01	1.72
	13.34	36.60	73.85	0.00	0.0654	11.30	497.1	394.00	0.0682	489.3	8.808	17.06	10.33	1.72
	14.34	36.63	73.85	0.00	0.0647	11.19	492.4	390.30	0.0687	539.9	9.719	18.83	11.82	1.72
	15.34	36.60	73.85	0.00	0.0645	11.10	488.3	387.01	0.0694	547.1	9.847	19.08	12.01	1.72
	16.34	36.64	73.90	-0.00	0.0645	11.12	489.2	387.53	0.0666	528.2	9.508	18.41	11.48	1.72
	17.36	36.62	73.82	-0.00	0.0651	11.19	492.2	390.30	0.0659	521.1	9.380	18.18	11.28	1.72
	18.36	36.61	73.87	-0.00	0.0658	11.37	500.5	396.54	0.0625	472.7	8.509	16.48	9.82	1.72
	19.36	36.65	73.82	-0.00	0.0657	11.36	500.0	396.50	0.0648	492.9	8.872	17.20	10.44	1.72
	20.33	36.62	73.85	0.00	0.0655	11.31	497.4	394.27	0.0677	536.2	9.651	18.70	11.71	1.72
	21.34	36.67	73.87	0.00	0.0654	11.30	497.1	393.91	0.0700	546.7	9.840	19.06	12.01	1.72
	22.42	36.64	73.85	0.00	0.0653	11.26	495.5	392.75	0.0703	560.0	10.079	19.53	12.37	1.72
	23.41	36.64	73.82	0.00	0.0653	11.28	496.1	393.41	0.0692	549.5	9.891	19.17	12.08	1.73
	24.34	36.64	73.90	0.00	0.0653	11.28	496.5	393.31	0.0706	562.3	10.122	19.60	12.43	1.72
	25.34	36.64	73.87	0.00	0.0653	11.30	497.2	393.97	0.0703	565.8	10.184	19.73	12.53	1.72
	26.34	36.70	73.85	0.00	0.0646	11.11	488.7	387.44	0.0698	559.3	10.068	19.51	12.35	1.72
	27.33	36.66	73.85	0.00	0.0665	11.14	490.0	388.44	0.0703	548.2	9.868	19.12	12.05	1.72
	28.36	36.68	73.87	-0.00	0.0655	11.34	498.9	395.34	0.0697	523.2	9.417	18.24	11.34	1.72
	29.34	36.67	73.85	0.00	0.0653	11.26	495.6	392.90	0.0717	574.5	10.341	20.04	12.76	1.73
	30.34	36.68	73.82	0.00	0.0653	11.26	495.6	393.05	0.0715	576.9	10.384	20.13	12.82	1.72
	31.36	36.64	73.85	-0.00	0.0654	11.30	497.1	394.00	0.0715	573.3	10.319	19.99	12.73	1.72
	32.36	36.64	73.87	-0.00	0.0653	11.28	496.1	393.11	0.0729	585.5	10.539	20.41	13.05	1.72
	33.34	36.62	73.87	-0.00	0.0653	11.27	495.8	392.80	0.0736	600.5	10.810	20.94	13.44	1.72
	34.33	36.62	73.85	0.00	0.0653	11.26	495.5	392.77	0.0729	590.1	10.622	20.58	13.17	1.72
	35.34	36.61	73.85	0.00	0.0653	11.26	495.6	392.78	0.0734	598.4	10.772	20.87	13.38	1.73
	36.34	36.62	73.87	0.00	0.0657	11.35	499.2	395.53	0.0736	595.8	10.724	20.77	13.32	1.72
	37.33	36.62	73.87	0.00	0.0661	11.43	502.9	398.50	0.0743	610.9	10.996	21.30	13.70	1.72
	38.36	36.65	73.87	-0.00	0.0653	11.28	496.3	393.25	0.0760	622.9	11.212	21.72	14.00	1.72
	39.34	36.68	73.90	0.00	0.0652	11.24	494.7	391.93	0.0773	639.7	11.515	22.30	14.41	1.72
	40.41	36.64	73.87	0.00	0.0652	11.24	494.7	391.98	0.0776	647.2	11.649	22.56	14.59	1.73
	41.33	36.64	73.87	0.00	0.0651	11.24	494.6	391.93	0.0777	648.1	11.665	22.59	14.61	1.73
	42.36	36.67	73.90	0.00	0.0652	11.25	494.8	391.96	0.0774	641.0	11.537	22.34	14.44	1.72
	43.34	36.68	73.85	0.00	0.0652	11.24	494.6	392.13	0.0779	651.4	11.725	22.72	14.69	1.72
	44.34	36.68	73.85	-0.00	0.0652	11.24	494.6	392.10	0.0780	651.2	11.721	22.71	14.69	1.72
	45.36	36.68	73.85	-0.00	0.0651	11.23	494.2	391.79	0.0784	655.1	11.792	22.85	14.78	1.72
	46.34	36.64	73.85	0.00	0.0650	11.20	493.0	390.77	0.0789	662.6	11.927	23.11	14.96	1.72
	47.41	36.67	73.85	0.00	0.0649	11.18	491.8	389.89	0.0792	667.5	12.015	23.28	15.07	1.73
	48.34	36.64	73.85	-0.00	0.0649	11.18	491.9	389.93	0.0793	670.6	12.070	23.39	15.14	1.72
	49.34	36.68	73.85	0.00	0.0648	11.17	491.6	389.71	0.0791	665.6	11.980	23.22	15.03	1.72
	50.34	36.67	73.82	-0.00	0.0648	11.16	491.2	389.50	0.0786	661.1	11.900	23.07	14.92	1.72
	51.33	36.70	73.85	0.00	0.0651	11.22	493.6	391.31	0.0776	648.4	11.671	22.62	14.62	1.72
	52.36	36.72	73.82	0.00	0.0650	11.21	493.1	391.06	0.0787	661.4	11.905	23.08	14.93	1.73
	53.36	36.68	73.85	-0.00	0.0651	11.21	493.4	391.16	0.0793	668.1	12.026	23.30	15.09	1.73
	54.41	36.70	73.90	0.00	0.0651	11.22	493.7	391.10	0.0792	670.0	12.060	23.36	15.13	1.72
	55.33	36.68	73.87	0.00	0.0649	11.17	491.7	389.64	0.0793	668.2	12.027	23.30	15.09	1.72
	56.34	36.73	73.87	0.00	0.0652	11.23	494.0	391.59	0.0803	677.5	12.195	23.63	15.31	1.72
	57.34	36.68	73.85	0.00	0.0654	11.29	496.9	393.90	0.0801	680.1	12.242	23.72	15.36	1.72
	58.33	36.70	73.85	0.00	0.0655	11.31	497.6	394.52	0.0814	696.8	12.542	24.30	15.74	1.73
	59.36	36.70	73.90	-0.00	0.0653	11.28	496.1	393.04	0.0813	694.8	12.507	24.22	15.70	1.73
	60.34	36.70	73.82	0.00	0.0653	11.28	496.2	393.49	0.0812	693.6	12.486	24.21	15.67	1.72
	61.33	36.67	73.85	0.00	0.0653	11.26	495.5	392.80	0.0812	686.7	12.361	23.95	15.51	1.72
	62.33	36.63	73.87	0.00	0.0655	11.31	497.7	394.35	0.0815	700.0	12.601	24.41	15.81	1.72
	63.34	36.68	73.85	0.00	0.0653	11.28	496.4	393.53	0.0816	697.9	12.562	24.34	15.77	1.73
	64.34	36.69	73.87	-0.00	0.0654	11.26	495.5	392.67	0.0819	703.4	12.661	24.53	15.89	1.73
	65.33	36.67	73.87	0.00	0.0655	11.30	497.4	394.17	0.0820	701.0	12.619	24.44	15.84	1.73
	66.34	36.67	73.87	0.00	0.0654	11.29	496.7	393.62	0.0824	706.9	12.724	24.65	15.97	1.72
	67.34	36.72	73.85	0.00	0.0652	11.25	494.9	392.41	0.0825	709.8	12.777	24.76	16.03	1.73
	68.34	36.76	73.87	-0.00	0.0652	11.24	494.7	392.14	0.0808	693.4	12.481	24.18	15.67	1.72
	69.36	36.67	73.90	-0.00	0.0654	11.27	495.9	392.80	0.0816	695.1	12.512	24.23	15.70	1.72
	70.36	36.72	73.85	-0.00	0.0654	11.28	496.4	393.60	0.0822	703.8	12.668	24.55	15.90	1.73
	71.41	36.67	73.85	0.00	0.0654	11.29	496.7	393.76	0.0844	735.9	13.246	25.67	16.60	1.73
	72.34	36.67	73.85	-0.00	0.0653	11.28	496.2	393.35	0.0844	735.1	13.232	25.64	16.58	1.73
	73.36	36.65	73.85	0.00	0.0653	11.27	496.0	393.19	0.0833	722.1	12.998	25.19	16.30	1.73
	74.34	36.67	73.87	0.00	0.0652	11.25	495.2	392.44	0.0832	718.7	12.936	25.06	16.23	1.73
	75.33	36.67	73.85	0.00	0.0654	11.27	496.1	393.25	0.0832	716.0	12.887	24.97	16.17	1.73
	76.33	36.67	73.85	0.00	0.0653	11.26	495.5	392.76	0.0825	710.2	12.784	24.77	16.04	1.73
	77.36	36.71	73.85	-0.00	0.0654	11.28	496.2	393.40	0.0839	720.3	12.966	25.13	16.26	1.73
	78.33	36.68	73.85	0.00	0.0654	11.27	496.1	393.25	0.0853	746.3	13.433	26.03	16.82	1.73
	79.34	36.64	73.80	0.00	0.0653	11.27	495.7	393.21	0.0848	737.6	13.276	25.74	16.63	1.72
	80.34	36.69	73.82	0.00	0.0653	11.25	495.0	392.56	0.0850	738.1	13.285	25.75	16.64	1.73
	81.34	36.66	73.87	0.00	0.0654	11.29	496.8	393.64	0.0851	746.3	13.433	26.02	16.82	1.73
	82.33	36.61	73.85	0.00	0.0655	11.31	497.7	394.50	0.0853	745.9	13.426	26.01	16.81	1.73
	83.34	36.68	73.82	-0.00	0.0655	11.31	497.5	394.56	0.0856	748.4	13.472	26.12	16.86	1.73
	84.36	36.68	73.87	-0.00	0.0657	11.35	499.2	395.59	0.0858	750.4	13.508	26.17	16.91	1.73
	85.41	36.68	73.85	0.00	0.0653	11.26	495.6	392.92	0.0828	715.2	12.874	24.95	16.15	1.73
	86.34	36.67	73.82	-0.00	0.0656	11.32	498.1	395.01	0.0845	733.1	13.196	25.58	16.54	1.73
	87.34	36.66	73.85	0.00	0.0656	11.35	499.6	396.01	0.0844	736.7	13.261	25.70	16.61	1.73
	88.34	36.70	73.87	-0.00	0.0654	11.29	497.0	393.86	0.0844	733.7	13.207	25.59	16.55	1.73
	89.33	36.67	73.82	0.00	0.0652	11.24	494.8	392.35	0.0854	746.8	13.443	26.06	16.83	1.73
	90.34	36.72	73.87	0.00	0.0651	11.23	494.3	391.79	0.0849	740.3	13.326	25.82	16.70	1.73
	91.34	36.70	73.87	0.00	0.0652	11.24	494.6	391.99	0.0853	743.6	13.384	25.93	16.76	1.73
	92.33	36.67	73.82	0.00	0.0654	11.27	495.9	393.22	0.0861	752.8	13.551	26.27	16.96	1.73
	93.33	36.70	73.90	0.00	0.0654	11.29	496.9	393.65	0.0853	748.1	13.465	26.08	16.86	1.73
	94.34	36.67	73.85	0.00	0.0654	11.27	495.7	392.98	0.0866	759.1	13.663	26.48	17.09	1.73
	95.34	36.66	73.87	0.00	0.0656	11.33	498.5	395.02	0.0867	764.6	13.763	26.66	17.20	1.73
	96.34	36.69	73.87	-0.00	0.0657	11.40	501.4	397.37	0.0888	791.4	14.245	27.60	17.75	1.73
	97.36	36.65	73.85	-0.00	0.0656	11.32	498.3	394.98	0.0883	787.4	14.172	27.46	17.66	1.73
	98.42	36.70	73.82	-0.00	0.0655	11.33	498.4	395.24	0.0880	782.9	14.091	27.32	17.58	1.73
	99.41	36.70	73.87	0.00	0.0655	11.31	497.8	394.53	0.0866	766.5	13.798	26.73	17.24	1.73
	100.33	36.63	73.87	0.00	0.0655	11.31	497.6	394.30	0.0865	757.2	13.629	26.40	17.05	1.73
	101.34	36.67	73.85	0.00	0.0655	11.31	497.8	394.63	0.0876	772.9	13.913	26.96	17.37	1.73
	102.41	36.64	73.85	0.00	0.0654	11.30	497.0	393.96	0.0889	791.1	14.240	27.59	17.74	1.73
	103.33	36.68	73.85	0.00	0.0651	11.24	494.5	391.98	0.0890	797.8	14.361	27.83	17.88	1.73
	104.34	36.65	73.82	0.00	0.0650	11.20	493.0	390.89	0.0869	771.0	13.878	26.90	17.33	1.73
	105.34	36.62	73.82	0.00	0.0650	11.20	492.9	390.85	0.0865	763.8	13.749	26.65	17.18	1.73
	106.34	36.63	73.85	-0.00	0.0650	11.20	492.8	390.61	0.0860	755.7	13.603	26.36	17.02	1.73
	107.33	36.60	73.85	0.00	0.0651	11.22	493.8	391.33	0.0865	761.5	13.707	26.55	17.13	1.73
	108.34	36.59	73.87	0.00	0.0653	11.25	494.9	392.06	0.0865	761.0	13.698	26.53	17.12	1.73
	109.41	36.59	73.87	0.00	0.0654	11.28	496.4	393.25	0.0863	757.9	13.642	26.42	17.06	1.73
	110.34	36.60	73.87	-0.00	0.0653	11.27	495.9	392.88	0.0869	767.7	13.819	26.76	17.26	1.73
	111.36	36.61	73.87	-0.00	0.0652	11.25	494.9	392.10	0.0876	775.1	13.952	27.02	17.41	1.73
	112.34	36.63	73.87	-0.00	0.0652	11.23	494.2	391.62	0.0888	791.8	14.253	27.61	17.75	1.73
	113.33	36.60	73.82	0.00	0.0654	11.28	496.5	393.66	0.0893	799.7	14.395	27.90	17.91	1.73
	114.33	36.59	73.85	0.00	0.0659	11.38	500.8	396.90	0.0909	825.7	14.862	28.79	18.42	1.73
	115.34	36.65	73.85	0.00	0.0656	11.35	499.6	396.01	0.0905	816.7	14.700	28.48	18.25	1.73
	116.33	36.63	73.87	0.00	0.0654	11.30	497.0	393.82	0.0911	823.2	14.818	28.70	18.37	1.73
	117.34	36.62	73.85	-0.00	0.0653	11.28	496.2	393.25	0.0917	835.0	15.030	29.12	18.60	1.73
	118.36	36.61	73.87	0.00	0.0655	11.28	496.4	393.32	0.0888	806.7	14.520	28.12	18.05	1.73
	119.34	36.62	73.82	-0.00	0.0656	11.33	498.6	395.33	0.0869	769.0	13.842	26.83	17.29	1.73
	120.34	36.64	73.87	-0.00	0.0655	11.32	498.2	394.80	0.0875	776.6	13.979	27.08	17.45	1.73
	121.33	36.65	73.87	0.00	0.0655	11.31	497.5	394.23	0.0886	787.1	14.169	27.44	17.66	1.73
	122.34	36.65	73.85	-0.00	0.0654	11.28	496.3	393.39	0.0895	800.3	14.406	27.91	17.92	1.73
	123.33	36.64	73.82	0.00	0.0653	11.27	496.1	393.35	0.0899	808.8	14.559	28.22	18.09	1.73
	124.34	36.64	73.87	-0.00	0.0654	11.28	496.4	393.37	0.0890	797.9	14.361	27.82	17.87	1.73
	125.34	36.68	73.87	0.00	0.0653	11.27	495.8	392.87	0.0892	797.6	14.356	27.81	17.87	1.73
	126.34	36.67	73.87	0.00	0.0655	11.29	496.7	393.60	0.0901	809.0	14.561	28.21	18.10	1.73
	127.34	36.63	73.87	-0.00	0.0658	11.37	500.5	396.55	0.0896	811.2	14.602	28.28	18.14	1.73
	128.33	36.64	73.85	0.00	0.0665	11.56	508.5	403.07	0.0874	784.0	14.112	27.34	17.60	1.73
	129.34	36.67	73.87	0.00	0.0660	11.38	500.7	396.80	0.0907	825.3	14.855	28.78	18.41	1.73
	130.34	36.68	73.85	0.00	0.0655	11.31	497.5	394.40	0.0914	832.1	14.977	29.02	18.54	1.73
	131.33	36.64	73.85	0.00	0.0657	11.35	499.6	395.97	0.0910	822.0	14.796	28.67	18.35	1.73
