Jul 29 2015 at 10:15:33
Frequency: 1.00Hz.
CO2
Zero:  Value:0.95  Date:18 Mar 2005	 at 07:22:33	
Span:  Value:1.00  Date:18 Mar 2005	 at 07:25:09	
H2O
Zero:  Value:0.71  Date:18 Mar 2005	 at 07:52:31	
Span:  Value:0.99  Date:18 Mar 2005	 at 11:44:01	
	Relative Time	Temperature	Pressure	Aux Input	CO2 Absorptance	CO2 mmol/m3	CO2 mg/m3	CO2 umol/mol	H2O Absorptance	H2O mmol/m3	H2O g/m3	H2O mmol/mol	H2O(°C)	Cooler Voltage
	0.28	25.63	73.41	-0.00	0.0632	10.82	476.2	366.21	0.0900	817.2	14.710	27.65	17.68	1.63
	1.28	25.65	73.41	-0.00	0.0630	10.77	474.0	364.57	0.0925	847.1	15.248	28.67	18.25	1.63
	2.34	25.63	73.41	0.00	0.0624	10.65	468.5	360.32	0.0949	889.6	16.013	30.11	19.03	1.64
	3.27	25.65	73.41	0.00	0.0624	10.65	468.8	360.54	0.0952	882.9	15.892	29.88	18.91	1.63
	4.28	25.65	73.41	0.00	0.0625	10.67	469.3	360.97	0.0949	883.0	15.894	29.88	18.92	1.64
	5.28	25.63	73.41	-0.00	0.0624	10.67	469.6	361.19	0.0953	887.4	15.974	30.03	18.99	1.63
	6.28	25.65	73.41	0.00	0.0624	10.66	468.8	360.60	0.0957	889.4	16.009	30.10	19.03	1.63
	7.28	25.67	73.41	-0.00	0.0625	10.65	468.8	360.58	0.0955	894.4	16.099	30.27	19.12	1.64
	8.28	25.66	73.41	0.00	0.0625	10.65	468.6	360.43	0.0951	887.5	15.975	30.04	19.00	1.63
	9.28	25.65	73.41	-0.00	0.0627	10.72	471.9	362.94	0.0946	880.1	15.842	29.78	18.86	1.63
	10.28	25.67	73.41	0.00	0.0627	10.72	471.7	362.83	0.0949	880.1	15.843	29.79	18.86	1.64
	11.27	25.67	73.41	0.00	0.0627	10.72	471.8	362.88	0.0951	881.5	15.867	29.83	18.89	1.63
	12.30	25.63	73.41	-0.00	0.0626	10.67	469.4	361.03	0.0949	882.2	15.880	29.85	18.90	1.64
	13.28	25.66	73.41	-0.00	0.0626	10.68	469.8	361.39	0.0952	885.7	15.943	29.98	18.97	1.64
	14.27	25.67	73.41	0.00	0.0626	10.68	469.9	361.48	0.0952	885.9	15.946	29.98	18.97	1.64
	15.27	25.69	73.41	0.00	0.0625	10.68	469.9	361.50	0.0951	884.4	15.918	29.93	18.94	1.64
	16.28	25.69	73.41	-0.00	0.0626	10.68	470.1	361.65	0.0951	884.4	15.919	29.93	18.94	1.64
	17.27	25.68	73.41	0.00	0.0627	10.70	470.6	361.98	0.0951	883.6	15.905	29.91	18.93	1.64
	18.27	25.68	73.41	0.00	0.0627	10.70	470.9	362.22	0.0947	879.0	15.823	29.75	18.85	1.64
	19.28	25.68	73.41	-0.00	0.0625	10.68	469.9	361.49	0.0944	874.7	15.745	29.61	18.77	1.64
	20.27	25.68	73.41	0.00	0.0625	10.68	470.0	361.51	0.0940	869.6	15.653	29.43	18.67	1.64
	21.28	25.68	73.43	0.00	0.0627	10.71	471.1	362.23	0.0934	863.0	15.533	29.20	18.55	1.64
	22.28	25.70	73.43	-0.00	0.0632	10.81	475.7	365.82	0.0889	801.4	14.426	27.12	17.38	1.64
	23.28	25.70	73.41	0.00	0.0631	10.80	475.2	365.60	0.0898	805.1	14.492	27.25	17.45	1.64
	24.28	25.70	73.41	-0.00	0.0628	10.75	473.0	363.86	0.0920	835.5	15.039	28.28	18.04	1.64
	25.28	25.70	73.41	0.00	0.0627	10.72	471.5	362.70	0.0938	863.3	15.540	29.22	18.56	1.64
	26.27	25.68	73.41	0.00	0.0626	10.70	470.6	361.99	0.0946	877.1	15.789	29.69	18.81	1.64
	27.36	25.72	73.41	-0.00	0.0625	10.68	469.9	361.52	0.0948	880.5	15.850	29.81	18.87	1.64
	28.28	25.70	73.41	-0.00	0.0625	10.67	469.5	361.16	0.0947	878.8	15.819	29.75	18.84	1.64
	29.28	25.70	73.41	0.00	0.0625	10.66	469.3	360.99	0.0945	875.8	15.765	29.65	18.79	1.64
	30.27	25.74	73.43	0.00	0.0625	10.66	469.2	360.89	0.0944	874.6	15.743	29.60	18.77	1.64
	31.36	25.72	73.41	-0.00	0.0625	10.67	469.4	361.15	0.0944	873.6	15.724	29.57	18.75	1.64
	32.34	25.73	73.41	0.00	0.0626	10.68	469.8	361.44	0.0944	873.9	15.730	29.58	18.75	1.64
	33.27	25.74	73.41	0.00	0.0625	10.69	470.3	361.80	0.0945	876.0	15.769	29.66	18.79	1.64
	34.27	25.72	73.41	0.00	0.0626	10.69	470.2	361.70	0.0946	876.3	15.773	29.66	18.80	1.64
	35.28	25.74	73.41	-0.00	0.0625	10.66	468.9	360.73	0.0937	867.6	15.617	29.37	18.64	1.64
	36.27	25.72	73.41	0.00	0.0626	10.69	470.2	361.76	0.0925	849.8	15.297	28.77	18.31	1.64
	37.28	25.74	73.41	-0.00	0.0629	10.74	472.4	363.43	0.0901	827.3	14.892	28.01	17.88	1.64
	38.27	25.74	73.41	0.00	0.0632	10.84	477.1	367.09	0.0875	769.4	13.850	26.05	16.73	1.64
	39.28	25.74	73.41	-0.00	0.0628	10.76	473.5	364.26	0.0906	817.0	14.705	27.66	17.68	1.64
	40.28	25.72	73.41	0.00	0.0627	10.73	472.2	363.28	0.0911	828.2	14.907	28.03	17.90	1.64
	41.28	25.74	73.41	-0.00	0.0627	10.71	471.4	362.72	0.0908	824.4	14.839	27.91	17.83	1.64
	42.28	25.74	73.43	0.00	0.0627	10.71	471.2	362.41	0.0915	832.0	14.976	28.16	17.97	1.64
	43.28	25.74	73.38	-0.00	0.0627	10.71	471.2	362.63	0.0924	844.7	15.204	28.60	18.21	1.64
	44.28	25.74	73.41	0.00	0.0627	10.70	471.0	362.38	0.0923	844.6	15.203	28.59	18.21	1.64
	45.27	25.75	73.41	0.00	0.0626	10.71	471.4	362.69	0.0919	839.1	15.104	28.41	18.11	1.64
	46.28	25.75	73.43	0.00	0.0627	10.72	471.5	362.67	0.0917	835.6	15.040	28.28	18.04	1.64
	47.28	25.78	73.41	0.00	0.0628	10.72	471.7	362.94	0.0917	836.2	15.051	28.31	18.05	1.64
	48.36	25.76	73.41	-0.00	0.0627	10.73	471.9	363.09	0.0915	834.6	15.022	28.25	18.02	1.64
	49.27	25.77	73.43	0.00	0.0628	10.73	472.1	363.11	0.0911	829.0	14.923	28.06	17.92	1.64
	50.36	25.78	73.43	-0.00	0.0628	10.73	472.1	363.15	0.0906	822.0	14.796	27.82	17.78	1.64
	51.28	25.78	73.43	-0.00	0.0628	10.73	472.3	363.30	0.0903	817.0	14.707	27.65	17.68	1.64
	52.27	25.74	73.41	-0.00	0.0627	10.73	472.2	363.32	0.0902	814.7	14.664	27.58	17.64	1.64
	53.27	25.78	73.41	0.00	0.0629	10.74	472.7	363.73	0.0899	811.4	14.605	27.47	17.58	1.65
	54.28	25.77	73.48	-0.00	0.0629	10.75	472.8	363.44	0.0901	814.3	14.658	27.54	17.63	1.65
	55.28	25.77	73.38	-0.00	0.0628	10.75	472.9	364.02	0.0903	816.8	14.703	27.66	17.68	1.64
	56.27	25.78	73.41	-0.00	0.0628	10.75	473.0	363.98	0.0901	814.6	14.663	27.58	17.64	1.64
	57.27	25.79	73.38	0.00	0.0629	10.75	473.0	364.11	0.0898	810.1	14.582	27.44	17.55	1.64
	58.27	25.78	73.41	0.00	0.0629	10.75	473.0	363.98	0.0896	806.7	14.520	27.31	17.48	1.65
	59.34	25.79	73.41	0.00	0.0629	10.75	473.1	364.08	0.0894	804.8	14.487	27.25	17.45	1.65
	60.27	25.79	73.43	0.00	0.0628	10.76	473.3	364.04	0.0894	804.2	14.475	27.22	17.43	1.65
	61.28	25.79	73.41	0.00	0.0629	10.76	473.3	364.18	0.0893	803.4	14.462	27.20	17.42	1.64
	62.27	25.75	73.41	-0.00	0.0630	10.76	473.6	364.39	0.0891	800.8	14.414	27.11	17.37	1.65
	63.27	25.79	73.46	0.00	0.0630	10.78	474.3	364.74	0.0886	794.1	14.294	26.87	17.24	1.64
	64.28	25.79	73.41	-0.00	0.0629	10.77	474.0	364.76	0.0883	791.3	14.243	26.79	17.18	1.65
	65.27	25.79	73.43	0.00	0.0632	10.82	476.1	366.23	0.0866	767.6	13.817	25.98	16.70	1.65
	66.28	25.81	73.41	-0.00	0.0631	10.81	475.8	366.16	0.0872	770.9	13.877	26.10	16.77	1.65
	67.36	25.81	73.41	-0.00	0.0630	10.78	474.3	364.98	0.0878	781.3	14.064	26.46	16.98	1.65
	68.27	25.81	73.41	0.00	0.0629	10.77	473.8	364.64	0.0882	786.4	14.156	26.63	17.08	1.65
	69.27	25.81	73.41	0.00	0.0630	10.77	473.9	364.73	0.0879	786.9	14.163	26.64	17.09	1.65
	70.28	25.81	73.41	-0.00	0.0633	10.85	477.2	367.22	0.0861	757.8	13.640	25.66	16.50	1.65
	71.27	25.81	73.41	0.00	0.0631	10.80	475.0	365.55	0.0875	777.0	13.986	26.31	16.89	1.65
	72.27	25.81	73.41	0.00	0.0630	10.80	475.0	365.53	0.0878	783.3	14.099	26.52	17.02	1.65
	73.28	25.83	73.41	-0.00	0.0632	10.82	475.9	366.26	0.0874	778.4	14.012	26.36	16.92	1.65
	74.28	25.83	73.41	-0.00	0.0635	10.86	478.0	367.83	0.0864	764.7	13.765	25.90	16.64	1.65
	75.28	25.83	73.43	-0.00	0.0635	10.90	479.6	368.98	0.0858	754.3	13.578	25.53	16.43	1.65
	76.28	25.84	73.41	-0.00	0.0637	10.92	480.6	369.91	0.0857	754.1	13.574	25.54	16.42	1.65
	77.28	25.83	73.41	-0.00	0.0637	10.93	481.0	370.18	0.0856	751.7	13.531	25.45	16.37	1.65
	78.27	25.83	73.38	-0.00	0.0636	10.92	480.6	370.03	0.0857	753.5	13.562	25.52	16.41	1.65
	79.28	25.83	73.41	-0.00	0.0636	10.91	480.2	369.52	0.0860	756.7	13.621	25.62	16.48	1.65
	80.27	25.83	73.38	0.00	0.0635	10.90	479.6	369.24	0.0863	760.3	13.686	25.76	16.55	1.65
	81.27	25.84	73.41	0.00	0.0635	10.89	479.3	368.88	0.0866	764.8	13.766	25.90	16.64	1.65
	82.27	25.84	73.41	-0.00	0.0635	10.89	479.3	368.87	0.0859	759.0	13.662	25.70	16.53	1.65
	83.27	25.84	73.38	0.00	0.0637	10.92	480.7	370.09	0.0847	742.0	13.356	25.14	16.17	1.65
	84.27	25.85	73.41	0.00	0.0635	10.91	480.1	369.51	0.0853	744.5	13.402	25.21	16.22	1.65
	85.28	25.84	73.41	-0.00	0.0633	10.86	477.8	367.73	0.0861	757.4	13.633	25.65	16.49	1.65
	86.27	25.84	73.41	0.00	0.0633	10.86	478.0	367.89	0.0863	761.3	13.704	25.78	16.57	1.65
	87.27	25.87	73.41	0.00	0.0635	10.87	478.5	368.28	0.0865	763.9	13.751	25.87	16.63	1.65
	88.27	25.87	73.41	0.00	0.0635	10.89	479.1	368.78	0.0860	758.7	13.656	25.69	16.52	1.65
	89.28	25.85	73.41	-0.00	0.0636	10.92	480.3	369.65	0.0854	751.0	13.519	25.43	16.36	1.65
	90.27	25.89	73.43	0.00	0.0637	10.93	480.8	369.97	0.0852	746.3	13.434	25.27	16.26	1.65
	91.28	25.85	73.41	-0.00	0.0635	10.90	479.4	368.97	0.0855	751.4	13.525	25.44	16.37	1.65
	92.27	25.87	73.41	0.00	0.0636	10.89	479.3	368.95	0.0856	753.2	13.558	25.51	16.41	1.65
	93.28	25.87	73.41	-0.00	0.0636	10.91	480.0	369.45	0.0854	749.6	13.493	25.39	16.33	1.65
	94.27	25.88	73.43	0.00	0.0637	10.92	480.3	369.57	0.0854	750.1	13.502	25.40	16.34	1.65
	95.34	25.87	73.38	0.00	0.0637	10.93	481.0	370.32	0.0854	749.7	13.495	25.40	16.33	1.65
	96.28	25.88	73.38	-0.00	0.0638	10.96	482.2	371.32	0.0852	748.0	13.464	25.34	16.30	1.65
	97.34	25.87	73.41	0.00	0.0638	10.97	482.5	371.35	0.0851	746.6	13.439	25.29	16.27	1.65
	98.27	25.86	73.41	0.00	0.0639	10.97	482.7	371.54	0.0851	746.3	13.433	25.27	16.26	1.65
	99.27	25.88	73.41	0.00	0.0639	10.98	483.3	372.02	0.0851	745.5	13.419	25.25	16.25	1.66
	100.28	25.88	73.43	-0.00	0.0639	10.99	483.4	371.99	0.0852	746.4	13.435	25.27	16.26	1.65
	101.27	25.90	73.41	-0.00	0.0638	10.98	482.9	371.76	0.0853	747.0	13.446	25.30	16.28	1.65
	102.28	25.87	73.38	-0.00	0.0638	10.96	482.3	371.35	0.0851	745.9	13.426	25.27	16.25	1.65
	103.27	25.88	73.41	0.00	0.0638	10.94	481.4	370.52	0.0850	744.9	13.408	25.23	16.23	1.66
	104.28	25.90	73.41	0.00	0.0638	10.95	481.6	370.72	0.0855	749.7	13.494	25.39	16.33	1.66
	105.27	25.92	73.41	0.00	0.0636	10.92	480.6	370.00	0.0853	749.3	13.488	25.38	16.33	1.66
	106.28	25.90	73.41	-0.00	0.0636	10.92	480.4	369.84	0.0855	750.5	13.510	25.42	16.35	1.66
	107.28	25.90	73.38	-0.00	0.0637	10.93	481.1	370.49	0.0854	750.7	13.512	25.43	16.35	1.66
	108.28	25.92	73.41	0.00	0.0638	10.96	482.3	371.26	0.0855	750.3	13.505	25.41	16.35	1.66
	109.28	25.90	73.41	0.00	0.0640	10.99	483.6	372.28	0.0855	750.4	13.507	25.41	16.35	1.66
	110.27	25.92	73.41	0.00	0.0642	11.03	485.4	373.68	0.0853	748.0	13.464	25.34	16.30	1.66
	111.28	25.90	73.41	0.00	0.0643	11.08	487.6	375.35	0.0853	748.1	13.466	25.34	16.30	1.66
	112.28	25.92	73.41	0.00	0.0639	11.01	484.3	372.85	0.0851	747.9	13.461	25.33	16.30	1.66
	113.30	25.90	73.41	-0.00	0.0642	11.05	486.4	374.40	0.0852	744.6	13.403	25.22	16.23	1.66
	114.34	25.92	73.41	0.00	0.0643	11.05	486.3	374.35	0.0852	747.2	13.450	25.31	16.28	1.66
	115.28	25.92	73.41	0.00	0.0642	11.06	486.5	374.50	0.0851	745.1	13.411	25.24	16.24	1.66
	116.28	25.92	73.41	-0.00	0.0643	11.07	486.9	374.83	0.0851	745.4	13.416	25.25	16.24	1.66
	117.28	25.92	73.43	0.00	0.0643	11.07	487.2	374.91	0.0848	742.6	13.368	25.15	16.19	1.66
