Jul 29 2015 at 10:32:59
Frequency: 1.00Hz.
CO2
Zero:  Value:0.95  Date:18 Mar 2005	 at 07:22:33	
Span:  Value:1.00  Date:18 Mar 2005	 at 07:25:09	
H2O
Zero:  Value:0.71  Date:18 Mar 2005	 at 07:52:31	
Span:  Value:0.99  Date:18 Mar 2005	 at 11:44:01	
	Relative Time	Temperature	Pressure	Aux Input	CO2 Absorptance	CO2 mmol/m3	CO2 mg/m3	CO2 umol/mol	H2O Absorptance	H2O mmol/m3	H2O g/m3	H2O mmol/mol	H2O(°C)	Cooler Voltage
	0.06	27.78	73.38	0.00	0.0668	11.62	511.1	396.05	0.0514	360.9	6.496	12.30	5.44	1.73
	1.06	27.80	73.41	0.00	0.0661	11.49	505.7	391.79	0.0506	358.4	6.452	12.22	5.34	1.73
	2.08	27.78	73.38	-0.00	0.0662	11.50	506.0	392.07	0.0512	363.3	6.540	12.39	5.53	1.73
	3.08	27.77	73.38	-0.00	0.0670	11.61	510.9	395.87	0.0506	357.9	6.442	12.20	5.32	1.73
	4.06	27.78	73.41	0.00	0.0669	11.67	513.3	397.63	0.0509	360.7	6.493	12.29	5.43	1.72
	5.08	27.77	73.38	-0.00	0.0667	11.57	509.2	394.55	0.0533	380.2	6.844	12.96	6.19	1.73
	6.08	27.78	73.41	-0.00	0.0676	12.20	536.6	415.66	0.0529	378.7	6.817	12.91	6.13	1.72
	7.05	27.78	73.41	0.00	0.0682	12.18	536.1	415.26	0.0483	339.8	6.116	11.58	4.57	1.72
	8.08	27.78	73.41	-0.00	0.0680	12.06	530.8	411.13	0.0504	371.5	6.686	12.66	5.85	1.73
	9.05	27.80	73.41	0.00	0.0639	11.48	505.2	391.36	0.0911	531.4	9.565	18.11	11.14	1.73
	10.06	27.78	73.41	0.00	0.0626	10.74	472.4	365.96	0.0944	881.9	15.875	30.06	19.01	1.73
	11.06	27.82	73.41	0.00	0.0626	10.70	470.6	364.62	0.0946	878.0	15.803	29.93	18.94	1.72
	12.06	27.80	73.41	0.00	0.0627	10.72	471.6	365.35	0.0948	880.1	15.842	30.00	18.98	1.73
	13.06	27.78	73.41	-0.00	0.0627	10.72	471.5	365.24	0.0949	881.0	15.858	30.03	18.99	1.72
	14.08	27.79	73.41	-0.00	0.0625	10.67	469.4	363.63	0.0947	879.3	15.827	29.97	18.96	1.73
	15.06	27.79	73.41	0.00	0.0626	10.67	469.3	363.51	0.0948	877.8	15.800	29.92	18.93	1.73
	16.08	27.82	73.41	-0.00	0.0630	10.76	473.3	366.68	0.0916	843.3	15.179	28.75	18.30	1.72
	17.06	27.80	73.38	-0.00	0.0636	10.88	478.8	371.04	0.0879	791.8	14.253	27.00	17.30	1.72
	18.06	27.80	73.41	0.00	0.0640	11.03	485.1	375.81	0.0854	739.1	13.304	25.19	16.21	1.72
	19.06	27.80	73.41	0.00	0.0643	11.09	487.8	377.87	0.0839	721.8	12.992	24.60	15.84	1.72
	20.08	27.81	73.41	-0.00	0.0646	11.13	489.5	379.26	0.0827	716.5	12.897	24.42	15.72	1.73
	21.08	27.80	73.41	-0.00	0.0645	11.08	487.3	377.53	0.0835	729.9	13.138	24.88	16.01	1.73
	22.08	27.84	73.43	-0.00	0.0646	11.13	489.7	379.26	0.0833	720.6	12.972	24.56	15.82	1.72
	23.08	27.81	73.41	-0.00	0.0644	11.08	487.5	377.64	0.0844	736.2	13.252	25.10	16.15	1.72
	24.05	27.81	73.41	0.00	0.0643	11.08	487.7	377.85	0.0847	737.8	13.281	25.15	16.18	1.73
	25.06	27.79	73.41	0.00	0.0647	11.15	490.5	379.98	0.0839	731.8	13.172	24.94	16.05	1.72
	26.06	27.81	73.38	-0.00	0.0646	11.15	490.4	380.07	0.0841	732.1	13.178	24.96	16.06	1.73
	27.06	27.83	73.38	0.00	0.0646	11.14	490.2	379.92	0.0840	731.2	13.161	24.93	16.04	1.73
	28.06	27.81	73.41	-0.00	0.0647	11.14	490.3	379.84	0.0842	728.3	13.110	24.83	15.98	1.72
	29.06	27.81	73.38	0.00	0.0646	11.15	490.6	380.18	0.0846	735.2	13.234	25.07	16.13	1.73
	30.06	27.79	73.41	-0.00	0.0646	11.13	489.9	379.49	0.0846	738.0	13.283	25.15	16.19	1.72
	31.06	27.84	73.41	0.00	0.0645	11.09	488.0	378.06	0.0845	738.7	13.296	25.18	16.20	1.72
	32.06	27.83	73.41	0.00	0.0646	11.11	489.0	378.85	0.0839	723.7	13.027	24.67	15.88	1.73
	33.06	27.83	73.41	0.00	0.0646	11.13	489.9	379.57	0.0842	734.5	13.221	25.04	16.11	1.73
	34.06	27.83	73.35	-0.00	0.0647	11.15	490.7	380.46	0.0842	735.0	13.231	25.08	16.13	1.73
	35.06	27.83	73.41	0.00	0.0647	11.16	490.8	380.28	0.0841	732.4	13.183	24.97	16.07	1.73
	36.14	27.83	73.38	-0.00	0.0648	11.18	491.9	381.19	0.0840	732.0	13.176	24.96	16.06	1.72
	37.08	27.83	73.41	-0.00	0.0648	11.18	491.9	381.10	0.0841	730.4	13.147	24.90	16.03	1.73
	38.06	27.83	73.41	0.00	0.0648	11.19	492.2	381.31	0.0840	731.6	13.169	24.94	16.05	1.73
	39.05	27.83	73.41	0.00	0.0649	11.18	491.8	381.04	0.0839	730.1	13.142	24.89	16.02	1.73
	40.06	27.83	73.41	0.00	0.0649	11.20	492.7	381.69	0.0840	731.4	13.166	24.93	16.05	1.73
	41.05	27.85	73.41	0.00	0.0649	11.20	492.9	381.93	0.0841	732.5	13.185	24.97	16.07	1.73
	42.08	27.85	73.41	-0.00	0.0649	11.19	492.4	381.54	0.0841	731.4	13.166	24.94	16.05	1.73
	43.06	27.81	73.41	-0.00	0.0650	11.22	493.7	382.45	0.0841	733.5	13.203	25.00	16.09	1.73
	44.08	27.85	73.38	-0.00	0.0650	11.22	493.6	382.55	0.0842	732.6	13.186	24.98	16.07	1.73
	45.12	27.87	73.41	0.00	0.0650	11.22	493.8	382.65	0.0840	733.2	13.197	25.00	16.09	1.73
	46.08	27.85	73.40	-0.00	0.0650	11.21	493.4	382.30	0.0842	731.3	13.163	24.93	16.05	1.73
	47.06	27.85	73.40	-0.00	0.0650	11.23	494.0	382.79	0.0843	734.6	13.223	25.04	16.12	1.73
	48.08	27.85	73.41	-0.00	0.0651	11.24	494.4	383.04	0.0844	734.9	13.229	25.06	16.12	1.73
	49.12	27.85	73.46	0.00	0.0651	11.23	494.3	382.69	0.0843	734.9	13.229	25.04	16.12	1.73
	50.06	27.87	73.41	0.00	0.0650	11.25	495.1	383.66	0.0841	736.5	13.256	25.11	16.16	1.73
	51.06	27.85	73.41	0.00	0.0651	11.25	494.8	383.39	0.0841	735.0	13.229	25.06	16.12	1.73
	52.08	27.88	73.41	-0.00	0.0652	11.25	495.1	383.64	0.0843	735.1	13.232	25.06	16.13	1.73
	53.06	27.85	73.41	0.00	0.0652	11.24	494.5	383.13	0.0843	731.5	13.167	24.94	16.05	1.73
	54.05	27.87	73.38	0.00	0.0653	11.28	496.1	384.58	0.0845	736.8	13.262	25.13	16.16	1.73
	55.06	27.88	73.43	0.00	0.0652	11.28	496.3	384.48	0.0845	737.1	13.268	25.12	16.17	1.73
	56.06	27.87	73.41	-0.00	0.0653	11.28	496.5	384.70	0.0844	737.6	13.278	25.15	16.18	1.73
	57.08	27.87	73.38	-0.00	0.0654	11.29	496.8	385.11	0.0845	737.9	13.282	25.17	16.19	1.73
	58.06	27.87	73.43	-0.00	0.0654	11.30	497.2	385.12	0.0846	737.9	13.282	25.15	16.19	1.73
	59.08	27.89	73.41	-0.00	0.0654	11.30	497.3	385.35	0.0845	738.5	13.294	25.18	16.20	1.73
	60.06	27.87	73.41	-0.00	0.0653	11.30	497.3	385.35	0.0846	738.9	13.300	25.19	16.21	1.73
	61.08	27.87	73.41	-0.00	0.0654	11.31	497.6	385.55	0.0849	741.6	13.349	25.28	16.27	1.73
	62.12	27.87	73.38	0.00	0.0655	11.32	498.3	386.22	0.0851	743.6	13.385	25.36	16.31	1.73
	63.06	27.89	73.41	0.00	0.0654	11.31	497.7	385.65	0.0846	741.5	13.346	25.28	16.26	1.73
	64.06	27.91	73.40	-0.00	0.0655	11.33	498.7	386.50	0.0849	744.2	13.396	25.38	16.32	1.73
	65.06	27.87	73.38	0.00	0.0655	11.34	499.0	386.78	0.0850	744.6	13.402	25.39	16.33	1.73
	66.12	27.89	73.38	0.00	0.0655	11.33	498.5	386.43	0.0849	742.4	13.363	25.32	16.28	1.73
	67.06	27.89	73.41	0.00	0.0656	11.35	499.5	387.04	0.0852	747.9	13.463	25.50	16.40	1.73
	68.06	27.88	73.41	0.00	0.0655	11.34	498.9	386.56	0.0849	745.1	13.412	25.40	16.34	1.73
	69.06	27.89	73.38	0.00	0.0656	11.36	499.9	387.51	0.0852	747.6	13.456	25.50	16.39	1.73
	70.06	27.91	73.41	-0.00	0.0656	11.35	499.3	386.93	0.0852	746.5	13.438	25.46	16.37	1.73
	71.05	27.88	73.41	0.00	0.0656	11.35	499.4	386.99	0.0852	745.7	13.423	25.43	16.35	1.73
	72.06	27.90	73.41	0.00	0.0655	11.36	499.7	387.22	0.0850	747.2	13.450	25.48	16.39	1.74
	73.06	27.91	73.41	-0.00	0.0657	11.37	500.5	387.84	0.0855	752.1	13.538	25.65	16.49	1.74
	74.06	27.89	73.36	0.00	0.0657	11.38	500.6	388.18	0.0856	752.6	13.546	25.68	16.50	1.73
	75.12	27.93	73.38	-0.00	0.0656	11.37	500.1	387.71	0.0853	749.6	13.494	25.57	16.44	1.73
	76.08	27.93	73.38	-0.00	0.0656	11.38	500.6	388.08	0.0854	752.2	13.539	25.66	16.49	1.73
	77.06	27.90	73.38	-0.00	0.0658	11.38	500.9	388.31	0.0856	751.4	13.525	25.63	16.47	1.73
	78.08	27.91	73.38	-0.00	0.0658	11.39	501.2	388.57	0.0857	752.8	13.550	25.68	16.50	1.74
	79.06	27.91	73.40	-0.00	0.0657	11.39	501.1	388.32	0.0857	753.3	13.560	25.69	16.51	1.73
	80.08	27.91	73.38	-0.00	0.0658	11.40	501.6	388.86	0.0858	755.1	13.591	25.76	16.55	1.73
	81.05	27.91	73.41	0.00	0.0658	11.39	501.2	388.38	0.0860	755.2	13.594	25.75	16.55	1.74
	82.08	27.91	73.41	0.00	0.0657	11.38	500.6	387.97	0.0851	749.1	13.483	25.54	16.43	1.73
	83.05	27.91	73.41	0.00	0.0659	11.43	502.7	389.60	0.0860	757.7	13.638	25.84	16.61	1.73
	84.05	27.91	73.41	0.00	0.0659	11.41	502.2	389.20	0.0860	758.5	13.654	25.86	16.62	1.74
	85.12	27.91	73.41	0.00	0.0658	11.42	502.3	389.28	0.0861	761.9	13.713	25.98	16.69	1.74
	86.05	27.91	73.41	0.00	0.0659	11.42	502.3	389.30	0.0860	758.8	13.659	25.87	16.63	1.73
	87.06	27.95	73.41	-0.00	0.0659	11.44	503.4	390.17	0.0864	764.2	13.755	26.06	16.74	1.74
	88.06	27.90	73.41	0.00	0.0660	11.44	503.2	389.93	0.0865	763.9	13.750	26.05	16.73	1.74
	89.06	27.91	73.41	0.00	0.0660	11.44	503.5	390.22	0.0864	763.7	13.746	26.04	16.73	1.74
	90.06	27.92	73.41	-0.00	0.0660	11.43	503.0	389.86	0.0864	763.0	13.733	26.02	16.72	1.74
	91.06	27.93	73.41	0.00	0.0660	11.43	502.9	389.73	0.0863	760.9	13.696	25.95	16.67	1.74
	92.06	27.95	73.41	-0.00	0.0661	11.47	504.8	391.28	0.0871	773.5	13.923	26.38	16.93	1.74
	93.14	27.95	73.38	-0.00	0.0662	11.47	504.9	391.43	0.0872	774.0	13.932	26.40	16.94	1.74
	94.06	27.91	73.38	-0.00	0.0661	11.48	505.0	391.49	0.0870	771.9	13.895	26.33	16.90	1.74
	95.06	27.95	73.43	0.00	0.0661	11.47	504.7	391.03	0.0870	770.5	13.870	26.27	16.87	1.74
	96.06	27.95	73.41	-0.00	0.0661	11.48	505.1	391.51	0.0870	773.3	13.920	26.37	16.93	1.74
	97.06	27.93	73.43	0.00	0.0661	11.48	505.0	391.21	0.0871	773.6	13.925	26.37	16.93	1.74
	98.06	27.93	73.40	-0.00	0.0662	11.49	505.4	391.70	0.0871	773.9	13.930	26.39	16.94	1.74
	99.08	27.93	73.41	-0.00	0.0662	11.48	505.2	391.52	0.0872	774.7	13.944	26.42	16.96	1.74
	100.06	27.93	73.38	0.00	0.0663	11.51	506.4	392.61	0.0875	778.2	14.007	26.55	17.03	1.74
	101.05	27.95	73.43	0.00	0.0664	11.52	506.9	392.74	0.0878	779.8	14.037	26.58	17.06	1.74
	102.06	27.93	73.41	-0.00	0.0663	11.52	506.7	392.70	0.0875	781.0	14.058	26.63	17.08	1.74
	103.06	27.97	73.41	-0.00	0.0662	11.50	506.1	392.30	0.0873	778.6	14.015	26.55	17.04	1.74
	104.06	27.97	73.43	0.00	0.0664	11.53	507.3	393.07	0.0880	784.7	14.125	26.75	17.16	1.74
	105.05	27.95	73.41	0.00	0.0664	11.52	506.9	392.84	0.0877	780.9	14.056	26.63	17.08	1.74
	106.06	27.94	73.43	0.00	0.0664	11.51	506.7	392.55	0.0878	779.7	14.034	26.58	17.06	1.74
	107.06	27.95	73.41	-0.00	0.0663	11.53	507.1	393.03	0.0874	776.7	13.981	26.49	17.00	1.74
	108.14	27.95	73.41	-0.00	0.0664	11.53	507.1	393.05	0.0879	782.4	14.084	26.68	17.11	1.74
	109.06	27.95	73.40	-0.00	0.0664	11.55	508.2	393.87	0.0881	787.6	14.176	26.86	17.22	1.74
	110.06	27.98	73.38	0.00	0.0664	11.53	507.1	393.24	0.0879	781.7	14.070	26.67	17.10	1.74
	111.06	27.96	73.41	-0.00	0.0664	11.54	508.0	393.72	0.0881	786.8	14.162	26.83	17.20	1.74
	112.06	27.95	73.41	0.00	0.0665	11.54	507.9	393.67	0.0881	784.5	14.121	26.75	17.16	1.74
	113.05	27.95	73.41	0.00	0.0665	11.56	508.4	394.05	0.0882	788.2	14.188	26.88	17.23	1.74
	114.08	27.96	73.38	-0.00	0.0666	11.56	508.7	394.42	0.0882	787.9	14.183	26.88	17.23	1.74
	115.05	27.98	73.41	0.00	0.0667	11.60	510.2	395.50	0.0887	794.5	14.301	27.10	17.36	1.74
	116.05	27.96	73.38	0.00	0.0666	11.57	509.0	394.64	0.0883	787.9	14.182	26.88	17.22	1.74
	117.06	27.96	73.41	-0.00	0.0666	11.58	509.7	395.04	0.0886	794.5	14.301	27.10	17.36	1.74
	118.05	27.95	73.41	0.00	0.0667	11.59	509.9	395.21	0.0887	790.9	14.235	26.97	17.28	1.74
	119.05	27.96	73.38	0.00	0.0667	11.60	510.4	395.71	0.0888	794.8	14.307	27.12	17.36	1.74
	120.05	27.96	73.41	0.00	0.0668	11.61	510.6	395.80	0.0888	795.5	14.319	27.13	17.38	1.74
	121.05	28.01	73.38	0.00	0.0668	11.61	510.7	396.05	0.0889	796.3	14.333	27.17	17.39	1.74
	122.05	27.97	73.38	0.00	0.0668	11.62	511.4	396.50	0.0890	798.8	14.378	27.25	17.44	1.74
	123.12	27.96	73.38	0.00	0.0666	11.57	509.0	394.67	0.0884	791.6	14.250	27.01	17.30	1.74
	124.05	27.98	73.41	0.00	0.0669	11.63	511.5	396.51	0.0890	798.0	14.363	27.21	17.43	1.75
	125.06	27.99	73.41	-0.00	0.0669	11.65	512.7	397.41	0.0890	801.5	14.427	27.34	17.50	1.75
	126.06	27.98	73.41	-0.00	0.0667	11.61	510.9	396.05	0.0886	794.1	14.293	27.08	17.35	1.74
	127.06	28.00	73.41	0.00	0.0669	11.62	511.5	396.48	0.0888	794.5	14.301	27.10	17.36	1.74
	128.05	27.98	73.41	0.00	0.0667	11.62	511.3	396.32	0.0881	790.6	14.231	26.96	17.28	1.74
	129.06	27.98	73.41	0.00	0.0669	11.63	511.8	396.74	0.0887	788.2	14.187	26.88	17.23	1.75
	130.05	27.99	73.41	0.00	0.0671	11.68	514.0	398.41	0.0892	801.2	14.421	27.32	17.49	1.75
	131.05	27.98	73.35	0.00	0.0670	11.68	514.1	398.82	0.0889	802.3	14.441	27.38	17.51	1.75
	132.06	27.98	73.43	-0.00	0.0671	11.68	514.0	398.29	0.0893	803.8	14.468	27.40	17.54	1.75
	133.06	28.01	73.38	-0.00	0.0671	11.69	514.5	399.01	0.0895	804.4	14.479	27.45	17.56	1.75
	134.06	28.00	73.35	-0.00	0.0672	11.70	514.9	399.44	0.0896	804.7	14.484	27.47	17.56	1.75
	135.05	27.98	73.41	0.00	0.0672	11.70	514.9	399.15	0.0896	805.5	14.499	27.47	17.58	1.75
	136.06	27.99	73.41	0.00	0.0672	11.73	516.1	400.09	0.0896	809.0	14.563	27.59	17.65	1.75
	137.06	28.00	73.38	-0.00	0.0673	11.74	516.5	400.55	0.0898	809.5	14.571	27.62	17.66	1.75
	138.05	28.00	73.41	0.00	0.0673	11.72	515.7	399.75	0.0896	806.6	14.518	27.51	17.60	1.75
	139.05	28.00	73.41	0.00	0.0672	11.71	515.2	399.36	0.0894	803.6	14.464	27.41	17.54	1.75
	140.06	28.00	73.41	-0.00	0.0672	11.72	515.7	399.76	0.0895	804.7	14.485	27.45	17.56	1.75
	141.05	28.00	73.41	0.00	0.0673	11.73	516.2	400.17	0.0897	807.3	14.531	27.53	17.61	1.75
	142.12	28.00	73.41	0.00	0.0674	11.77	518.0	401.55	0.0901	815.2	14.673	27.80	17.77	1.75
	143.06	28.03	73.41	0.00	0.0674	11.75	517.1	400.90	0.0898	810.1	14.582	27.63	17.67	1.75
	144.06	27.98	73.38	0.00	0.0674	11.76	517.6	401.37	0.0898	811.0	14.598	27.67	17.68	1.75
	145.05	28.02	73.38	0.00	0.0675	11.78	518.2	401.87	0.0901	814.1	14.653	27.78	17.75	1.75
	146.06	28.00	73.41	0.00	0.0674	11.75	517.0	400.78	0.0900	810.4	14.588	27.64	17.67	1.75
	147.06	28.00	73.41	-0.00	0.0675	11.79	518.6	402.02	0.0899	815.0	14.670	27.80	17.76	1.75
	148.05	28.00	73.38	0.00	0.0675	11.79	518.9	402.36	0.0899	815.7	14.683	27.83	17.78	1.75
	149.05	28.00	73.41	0.00	0.0676	11.79	518.6	401.99	0.0904	817.0	14.706	27.87	17.80	1.75
	150.05	28.02	73.41	0.00	0.0677	11.81	519.5	402.75	0.0908	821.5	14.787	28.02	17.89	1.75
	151.05	28.02	73.41	0.00	0.0677	11.83	520.6	403.59	0.0909	824.8	14.847	28.13	17.95	1.75
	152.06	28.02	73.43	-0.00	0.0677	11.82	520.0	402.98	0.0906	822.0	14.795	28.03	17.90	1.75
	153.06	28.02	73.41	-0.00	0.0678	11.84	521.0	403.88	0.0908	824.5	14.842	28.13	17.95	1.75
	154.05	28.02	73.38	0.00	0.0678	11.83	520.7	403.83	0.0907	822.6	14.806	28.07	17.91	1.75
	155.05	28.02	73.38	0.00	0.0676	11.83	520.4	403.55	0.0905	820.1	14.762	27.98	17.86	1.75
	156.06	28.02	73.41	0.00	0.0679	11.85	521.5	404.30	0.0907	820.8	14.774	28.00	17.88	1.75
	157.06	28.03	73.40	-0.00	0.0679	11.87	522.2	404.88	0.0908	823.7	14.826	28.10	17.93	1.75
	158.06	28.02	73.40	-0.00	0.0679	11.90	523.4	405.81	0.0908	826.7	14.880	28.20	17.99	1.75
	159.12	28.02	73.38	0.00	0.0680	11.88	522.7	405.35	0.0909	824.7	14.845	28.14	17.95	1.75
	160.05	28.03	73.41	0.00	0.0680	11.89	523.1	405.56	0.0910	826.3	14.873	28.19	17.98	1.76
	161.06	28.04	73.38	-0.00	0.0680	11.89	523.1	405.72	0.0911	826.2	14.872	28.19	17.98	1.75
	162.06	28.02	73.41	-0.00	0.0681	11.91	524.0	406.26	0.0911	827.0	14.887	28.21	18.00	1.75
	163.05	28.04	73.41	-0.00	0.0681	11.93	525.0	407.05	0.0911	828.7	14.917	28.27	18.03	1.75
	164.06	28.03	73.38	-0.00	0.0682	11.96	526.4	408.23	0.0915	833.2	14.997	28.43	18.11	1.75
	165.05	28.02	73.41	-0.00	0.0682	11.95	525.8	407.60	0.0914	833.1	14.995	28.42	18.11	1.75
	166.06	28.02	73.41	-0.00	0.0682	11.94	525.3	407.24	0.0913	831.9	14.974	28.38	18.09	1.75
	167.14	28.03	73.38	-0.00	0.0684	11.96	526.3	408.15	0.0918	835.7	15.042	28.52	18.16	1.75
	168.05	28.04	73.41	0.00	0.0683	11.96	526.5	408.16	0.0916	836.0	15.048	28.52	18.17	1.75
	169.06	28.04	73.41	-0.00	0.0683	11.95	525.9	407.76	0.0916	834.7	15.024	28.47	18.14	1.75
	170.05	28.04	73.35	0.00	0.0683	11.96	526.1	408.14	0.0917	835.1	15.032	28.51	18.15	1.76
	171.05	28.03	73.41	0.00	0.0685	11.98	527.2	408.70	0.0920	837.6	15.077	28.57	18.20	1.76
	172.06	28.04	73.38	0.00	0.0686	12.02	528.9	410.20	0.0922	843.3	15.179	28.78	18.31	1.75
	173.05	28.04	73.43	0.00	0.0685	12.00	528.2	409.38	0.0920	840.1	15.121	28.65	18.25	1.76
	174.05	28.04	73.38	0.00	0.0686	12.02	528.8	410.11	0.0922	842.4	15.163	28.75	18.29	1.76
	175.05	28.06	73.41	0.00	0.0686	12.04	529.9	410.87	0.0924	846.5	15.237	28.88	18.37	1.76
	176.06	28.04	73.41	-0.00	0.0686	12.02	528.7	409.87	0.0922	843.3	15.179	28.77	18.31	1.76
	177.06	28.06	73.41	-0.00	0.0686	12.03	529.3	410.40	0.0922	844.0	15.193	28.79	18.32	1.76
	178.05	28.05	73.43	-0.00	0.0686	12.04	529.6	410.50	0.0923	844.9	15.208	28.81	18.34	1.76
	179.06	28.04	73.41	-0.00	0.0687	12.02	528.9	410.06	0.0925	843.6	15.185	28.78	18.31	1.76
	180.05	28.02	73.41	-0.00	0.0687	12.05	530.2	411.07	0.0927	848.9	15.280	28.96	18.41	1.76
	181.06	28.05	73.41	-0.00	0.0687	12.04	529.7	410.65	0.0925	845.5	15.219	28.84	18.35	1.76
	182.05	28.06	73.41	0.00	0.0687	12.04	529.9	410.88	0.0925	845.2	15.214	28.84	18.35	1.76
	183.06	28.08	73.41	-0.00	0.0688	12.07	531.1	411.82	0.0926	849.2	15.285	28.97	18.42	1.76
	184.05	28.05	73.38	-0.00	0.0688	12.08	531.4	412.13	0.0926	849.2	15.286	28.98	18.42	1.76
	185.05	28.06	73.41	0.00	0.0689	12.08	531.4	412.01	0.0928	849.8	15.296	28.99	18.43	1.76
