Jul 29 2015 at 10:26:38
Frequency: 1.00Hz.
CO2
Zero:  Value:0.95  Date:18 Mar 2005	 at 07:22:33	
Span:  Value:1.00  Date:18 Mar 2005	 at 07:25:09	
H2O
Zero:  Value:0.71  Date:18 Mar 2005	 at 07:52:31	
Span:  Value:0.99  Date:18 Mar 2005	 at 11:44:01	
	Relative Time	Temperature	Pressure	Aux Input	CO2 Absorptance	CO2 mmol/m3	CO2 mg/m3	CO2 umol/mol	H2O Absorptance	H2O mmol/m3	H2O g/m3	H2O mmol/mol	H2O(°C)	Cooler Voltage
	0.83	27.02	73.41	0.00	0.0600	10.15	446.4	344.92	0.0973	917.4	16.513	31.19	19.60	1.70
	1.83	27.05	73.41	0.00	0.0602	10.17	447.7	345.95	0.0971	911.8	16.412	31.00	19.50	1.70
	2.83	27.05	73.41	0.00	0.0602	10.17	447.7	345.93	0.0966	908.1	16.346	30.88	19.44	1.70
	3.91	27.05	73.41	-0.00	0.0602	10.18	447.9	346.11	0.0971	913.2	16.438	31.05	19.53	1.70
	4.84	27.03	73.41	-0.00	0.0601	10.18	447.9	346.06	0.0970	912.9	16.433	31.04	19.52	1.70
	5.83	27.05	73.41	0.00	0.0605	10.20	448.9	346.93	0.0949	897.3	16.151	30.51	19.25	1.70
	6.84	27.05	73.41	-0.00	0.0603	10.19	448.2	346.36	0.0954	893.2	16.078	30.37	19.17	1.70
	7.91	27.05	73.41	-0.00	0.0608	10.31	453.7	350.61	0.0927	850.4	15.307	28.91	18.39	1.70
	8.84	27.05	73.41	-0.00	0.0613	10.42	458.4	354.21	0.0911	827.2	14.890	28.13	17.95	1.70
	9.84	27.07	73.40	-0.00	0.0614	10.43	458.9	354.67	0.0908	823.7	14.827	28.01	17.88	1.70
	10.84	27.07	73.38	-0.00	0.0614	10.45	459.8	355.46	0.0907	823.4	14.822	28.01	17.88	1.70
	11.83	27.07	73.41	0.00	0.0622	10.56	464.7	359.11	0.0880	796.5	14.336	27.08	17.35	1.70
	12.84	27.07	73.41	0.00	0.0623	10.63	467.6	361.39	0.0876	781.6	14.069	26.58	17.05	1.70
	13.84	27.05	73.38	-0.00	0.0623	10.67	469.6	362.99	0.0879	775.2	13.953	26.37	16.92	1.70
	14.83	27.09	73.41	0.00	0.0626	10.65	468.4	362.00	0.0872	787.0	14.166	26.76	17.16	1.70
	15.83	27.09	73.41	0.00	0.0625	10.68	470.1	363.28	0.0872	774.9	13.949	26.35	16.92	1.70
	16.83	27.07	73.41	-0.00	0.0626	10.69	470.2	363.35	0.0872	779.8	14.036	26.52	17.01	1.70
	17.83	27.07	73.41	0.00	0.0626	10.71	471.0	364.00	0.0868	766.3	13.793	26.05	16.74	1.70
	18.89	27.07	73.41	0.00	0.0627	10.70	471.0	363.98	0.0868	769.7	13.854	26.17	16.81	1.70
	19.84	27.07	73.41	-0.00	0.0628	10.74	472.3	365.03	0.0868	765.8	13.784	26.04	16.73	1.70
	20.91	27.10	73.43	-0.00	0.0627	10.73	471.9	364.60	0.0868	775.2	13.954	26.35	16.92	1.70
	21.83	27.07	73.41	0.00	0.0628	10.72	471.7	364.54	0.0860	768.3	13.829	26.12	16.78	1.70
	22.83	27.09	73.41	0.00	0.0628	10.76	473.6	366.03	0.0860	756.9	13.623	25.74	16.55	1.70
	23.84	27.09	73.41	-0.00	0.0629	10.77	473.9	366.22	0.0860	756.5	13.618	25.73	16.54	1.70
	24.91	27.09	73.38	-0.00	0.0629	10.76	473.3	365.95	0.0864	762.6	13.727	25.94	16.66	1.70
	25.83	27.11	73.41	0.00	0.0629	10.75	473.2	365.72	0.0865	765.1	13.772	26.02	16.72	1.70
	26.91	27.09	73.40	-0.00	0.0629	10.76	473.3	365.82	0.0864	764.4	13.759	25.99	16.70	1.70
	27.84	27.09	73.41	-0.00	0.0629	10.75	472.9	365.45	0.0863	761.8	13.713	25.91	16.65	1.70
	28.83	27.11	73.38	0.00	0.0630	10.76	473.5	366.10	0.0862	760.8	13.694	25.88	16.63	1.70
	29.81	27.11	73.43	0.00	0.0629	10.77	473.7	366.02	0.0858	752.5	13.546	25.58	16.46	1.70
	30.83	27.11	73.38	0.00	0.0629	10.77	473.8	366.33	0.0860	757.6	13.637	25.77	16.56	1.70
	31.81	27.11	73.41	0.00	0.0630	10.78	474.5	366.73	0.0860	757.9	13.642	25.77	16.57	1.70
	32.84	27.11	73.41	-0.00	0.0631	10.79	474.8	366.98	0.0859	754.7	13.584	25.66	16.50	1.70
	33.83	27.13	73.41	-0.00	0.0631	10.80	475.4	367.44	0.0857	753.3	13.560	25.62	16.47	1.70
	34.83	27.11	73.41	0.00	0.0632	10.81	475.5	367.50	0.0856	751.4	13.524	25.55	16.43	1.70
	35.83	27.11	73.41	-0.00	0.0632	10.83	476.4	368.23	0.0857	754.0	13.572	25.64	16.49	1.70
	36.84	27.13	73.41	-0.00	0.0631	10.82	476.1	368.00	0.0856	752.8	13.551	25.60	16.46	1.70
	37.83	27.13	73.41	-0.00	0.0632	10.82	476.1	367.98	0.0855	751.5	13.526	25.56	16.44	1.70
	38.84	27.15	73.41	-0.00	0.0631	10.81	475.6	367.61	0.0854	750.3	13.505	25.52	16.41	1.70
	39.83	27.15	73.38	0.00	0.0632	10.81	475.8	367.95	0.0854	749.8	13.497	25.51	16.40	1.70
	40.83	27.13	73.41	0.00	0.0631	10.82	476.2	368.08	0.0855	749.3	13.487	25.48	16.39	1.70
	41.83	27.13	73.41	-0.00	0.0632	10.83	476.5	368.32	0.0855	750.8	13.514	25.53	16.42	1.70
	42.84	27.14	73.41	-0.00	0.0632	10.83	476.7	368.45	0.0856	750.1	13.502	25.51	16.41	1.70
	43.91	27.14	73.41	-0.00	0.0632	10.83	476.7	368.46	0.0854	749.7	13.494	25.50	16.40	1.70
	44.84	27.13	73.38	-0.00	0.0631	10.80	475.3	367.54	0.0861	759.5	13.672	25.84	16.60	1.70
	45.86	27.15	73.41	-0.00	0.0631	10.82	476.1	367.98	0.0860	755.6	13.601	25.70	16.52	1.70
	46.84	27.15	73.41	-0.00	0.0631	10.82	476.0	367.93	0.0861	758.0	13.644	25.78	16.57	1.70
	47.86	27.15	73.41	-0.00	0.0631	10.80	475.4	367.45	0.0862	760.1	13.681	25.85	16.61	1.70
	48.83	27.15	73.41	0.00	0.0631	10.80	475.3	367.40	0.0859	758.8	13.659	25.81	16.59	1.70
	49.86	27.15	73.41	-0.00	0.0633	10.84	476.8	368.55	0.0860	757.0	13.627	25.75	16.55	1.70
	50.83	27.15	73.41	0.00	0.0632	10.82	476.2	368.08	0.0859	755.3	13.596	25.69	16.52	1.70
	51.84	27.15	73.41	0.00	0.0632	10.83	476.5	368.36	0.0856	752.3	13.542	25.59	16.45	1.70
	52.84	27.19	73.41	-0.00	0.0633	10.84	476.9	368.67	0.0859	755.1	13.592	25.69	16.51	1.70
	53.84	27.15	73.41	0.00	0.0632	10.84	477.1	368.77	0.0859	755.5	13.600	25.70	16.52	1.70
	54.91	27.16	73.43	0.00	0.0630	10.81	475.6	367.57	0.0860	756.3	13.613	25.72	16.54	1.70
	55.84	27.17	73.41	0.00	0.0630	10.78	474.5	366.82	0.0862	761.0	13.698	25.88	16.64	1.70
	56.84	27.16	73.38	0.00	0.0631	10.80	475.1	367.35	0.0863	762.3	13.721	25.94	16.66	1.70
	57.84	27.16	73.41	0.00	0.0631	10.79	474.6	366.86	0.0867	767.9	13.822	26.12	16.78	1.70
	58.84	27.16	73.43	-0.00	0.0630	10.78	474.4	366.64	0.0866	765.6	13.781	26.03	16.73	1.70
	59.83	27.16	73.41	-0.00	0.0631	10.80	475.0	367.20	0.0865	764.7	13.764	26.01	16.71	1.70
	60.84	27.14	73.43	0.00	0.0630	10.77	474.0	366.23	0.0870	775.3	13.955	26.36	16.93	1.70
	61.84	27.16	73.41	-0.00	0.0631	10.81	475.6	367.69	0.0867	768.6	13.834	26.14	16.79	1.70
	62.84	27.16	73.41	0.00	0.0631	10.82	475.9	367.88	0.0866	765.4	13.778	26.04	16.73	1.70
	63.84	27.16	73.38	-0.00	0.0631	10.78	474.4	366.87	0.0868	767.7	13.819	26.12	16.77	1.70
	64.84	27.16	73.41	0.00	0.0632	10.80	475.3	367.43	0.0866	767.2	13.810	26.10	16.76	1.70
	65.84	27.18	73.41	0.00	0.0630	10.79	474.6	366.91	0.0866	765.3	13.775	26.03	16.72	1.70
	66.84	27.20	73.41	0.00	0.0630	10.77	473.9	366.42	0.0867	766.4	13.796	26.07	16.75	1.70
	67.83	27.18	73.38	0.00	0.0630	10.78	474.5	366.98	0.0867	766.8	13.802	26.09	16.75	1.70
	68.84	27.18	73.38	0.00	0.0631	10.79	474.9	367.24	0.0866	767.1	13.808	26.10	16.76	1.70
	69.83	27.20	73.38	0.00	0.0631	10.80	475.0	367.39	0.0867	767.0	13.806	26.10	16.76	1.70
	70.84	27.18	73.38	0.00	0.0629	10.77	474.0	366.60	0.0869	768.1	13.825	26.14	16.78	1.70
	71.84	27.18	73.41	-0.00	0.0630	10.77	474.1	366.50	0.0868	769.6	13.853	26.18	16.81	1.70
	72.84	27.18	73.41	0.00	0.0631	10.79	474.7	366.96	0.0868	768.7	13.837	26.15	16.79	1.70
	73.84	27.18	73.41	0.00	0.0629	10.80	475.0	367.20	0.0870	769.9	13.859	26.19	16.82	1.70
	74.83	27.20	73.41	0.00	0.0631	10.79	474.8	367.08	0.0871	772.7	13.908	26.28	16.88	1.70
	75.84	27.18	73.41	0.00	0.0631	10.79	475.0	367.17	0.0873	775.9	13.967	26.39	16.94	1.70
	76.83	27.16	73.41	0.00	0.0631	10.80	475.2	367.33	0.0873	775.8	13.965	26.39	16.94	1.70
	77.84	27.20	73.41	0.00	0.0630	10.79	474.8	367.11	0.0873	776.5	13.976	26.41	16.95	1.70
	78.83	27.20	73.38	0.00	0.0628	10.75	472.9	365.76	0.0881	783.5	14.103	26.66	17.10	1.70
	79.84	27.20	73.43	0.00	0.0630	10.76	473.5	365.98	0.0881	787.6	14.178	26.78	17.18	1.70
	80.84	27.23	73.41	0.00	0.0630	10.78	474.5	366.86	0.0875	777.7	13.999	26.46	16.98	1.70
	81.92	27.20	73.38	-0.00	0.0629	10.77	473.9	366.49	0.0874	777.2	13.989	26.45	16.97	1.70
	82.83	27.20	73.43	0.00	0.0629	10.75	473.0	365.57	0.0878	780.3	14.046	26.54	17.03	1.70
	83.86	27.20	73.41	-0.00	0.0629	10.75	473.1	365.76	0.0874	776.1	13.970	26.40	16.95	1.70
	84.83	27.21	73.41	0.00	0.0629	10.75	472.9	365.64	0.0878	779.8	14.037	26.53	17.02	1.70
	85.84	27.21	73.41	0.00	0.0628	10.74	472.5	365.34	0.0886	788.9	14.200	26.84	17.21	1.70
	86.84	27.22	73.41	-0.00	0.0628	10.74	472.6	365.42	0.0885	790.8	14.235	26.90	17.24	1.70
	87.84	27.20	73.38	0.00	0.0627	10.72	471.7	364.84	0.0883	788.7	14.196	26.84	17.20	1.70
	88.84	27.22	73.43	0.00	0.0628	10.72	471.8	364.63	0.0887	795.4	14.317	27.05	17.34	1.70
	89.84	27.22	73.38	0.00	0.0628	10.76	473.3	366.09	0.0882	787.1	14.167	26.79	17.17	1.70
	90.84	27.22	73.38	0.00	0.0627	10.72	471.9	364.99	0.0883	789.4	14.209	26.86	17.22	1.70
	91.83	27.21	73.41	0.00	0.0627	10.71	471.4	364.49	0.0889	795.7	14.323	27.07	17.34	1.70
	92.84	27.24	73.41	-0.00	0.0627	10.70	471.0	364.17	0.0888	794.7	14.305	27.04	17.32	1.70
	93.83	27.21	73.41	0.00	0.0627	10.71	471.4	364.47	0.0888	794.1	14.293	27.01	17.31	1.70
	94.84	27.24	73.41	-0.00	0.0628	10.72	471.8	364.81	0.0887	794.4	14.300	27.03	17.32	1.70
	95.84	27.24	73.41	-0.00	0.0627	10.72	471.7	364.72	0.0888	795.9	14.326	27.08	17.35	1.70
	96.84	27.24	73.41	0.00	0.0627	10.70	470.7	363.97	0.0890	799.3	14.387	27.19	17.41	1.70
	97.83	27.26	73.38	0.00	0.0627	10.71	471.0	364.35	0.0892	802.5	14.446	27.31	17.48	1.70
	98.92	27.24	73.41	-0.00	0.0626	10.71	471.2	364.34	0.0890	799.6	14.392	27.20	17.42	1.70
	99.84	27.23	73.41	0.00	0.0625	10.69	470.2	363.54	0.0891	798.9	14.380	27.18	17.41	1.70
	100.92	27.24	73.41	-0.00	0.0626	10.70	470.7	363.92	0.0893	799.2	14.385	27.19	17.41	1.70
	101.83	27.24	73.41	0.00	0.0626	10.69	470.2	363.55	0.0892	801.5	14.426	27.27	17.46	1.70
	102.84	27.25	73.41	0.00	0.0626	10.69	470.4	363.73	0.0901	811.7	14.611	27.62	17.66	1.70
	103.83	27.26	73.35	0.00	0.0626	10.69	470.2	363.81	0.0899	813.7	14.647	27.70	17.70	1.70
	104.84	27.26	73.41	0.00	0.0626	10.69	470.3	363.68	0.0894	804.1	14.475	27.36	17.51	1.70
	105.84	27.27	73.38	-0.00	0.0626	10.68	469.8	363.40	0.0894	806.1	14.510	27.44	17.55	1.71
	106.83	27.30	73.43	0.00	0.0624	10.67	469.7	363.12	0.0900	809.6	14.573	27.54	17.62	1.71
	107.91	27.26	73.41	0.00	0.0624	10.66	469.1	362.78	0.0897	810.7	14.593	27.58	17.64	1.70
	108.84	27.27	73.41	-0.00	0.0625	10.67	469.5	363.08	0.0900	811.8	14.612	27.62	17.66	1.70
	109.91	27.30	73.41	0.00	0.0625	10.67	469.4	363.03	0.0902	813.9	14.651	27.70	17.70	1.70
	110.83	27.25	73.40	0.00	0.0624	10.66	468.9	362.62	0.0904	817.1	14.708	27.80	17.76	1.71
	111.84	27.28	73.41	-0.00	0.0626	10.70	470.8	364.05	0.0902	813.5	14.642	27.68	17.69	1.71
	112.84	27.28	73.38	-0.00	0.0627	10.71	471.1	364.47	0.0897	809.7	14.575	27.56	17.62	1.71
	113.84	27.27	73.41	-0.00	0.0628	10.72	471.8	364.87	0.0899	811.2	14.601	27.60	17.65	1.70
	114.84	27.27	73.38	-0.00	0.0626	10.71	471.4	364.65	0.0897	806.2	14.512	27.44	17.55	1.70
	115.84	27.30	73.35	0.00	0.0627	10.70	471.0	364.50	0.0895	805.3	14.496	27.42	17.54	1.71
	116.84	27.29	73.41	-0.00	0.0627	10.71	471.1	364.35	0.0898	807.8	14.540	27.49	17.58	1.71
	117.84	27.29	73.38	0.00	0.0624	10.67	469.7	363.36	0.0901	812.1	14.617	27.64	17.67	1.71
	118.83	27.30	73.38	0.00	0.0625	10.68	469.7	363.39	0.0900	813.0	14.634	27.68	17.69	1.71
	119.84	27.29	73.38	0.00	0.0624	10.66	469.0	362.84	0.0906	820.0	14.760	27.91	17.82	1.71
	120.84	27.29	73.38	-0.00	0.0626	10.68	469.9	363.49	0.0907	822.3	14.802	27.99	17.87	1.70
	121.83	27.29	73.38	0.00	0.0624	10.66	469.0	362.82	0.0905	820.4	14.768	27.93	17.83	1.71
	122.84	27.28	73.43	-0.00	0.0624	10.66	468.9	362.54	0.0906	819.1	14.744	27.86	17.80	1.71
	123.84	27.29	73.41	-0.00	0.0624	10.66	468.9	362.59	0.0907	822.2	14.800	27.98	17.87	1.71
	124.84	27.29	73.41	-0.00	0.0625	10.67	469.4	363.01	0.0906	821.7	14.791	27.96	17.86	1.71
	125.84	27.27	73.41	-0.00	0.0624	10.64	468.1	361.96	0.0912	832.6	14.987	28.33	18.06	1.71
	126.84	27.29	73.41	-0.00	0.0624	10.63	467.9	361.88	0.0912	829.8	14.937	28.24	18.01	1.71
	127.83	27.29	73.41	0.00	0.0623	10.64	468.2	362.09	0.0914	832.8	14.991	28.34	18.07	1.70
	128.84	27.29	73.41	-0.00	0.0624	10.64	468.1	362.04	0.0912	831.5	14.967	28.29	18.04	1.71
	129.83	27.34	73.41	0.00	0.0624	10.64	468.3	362.25	0.0908	826.4	14.875	28.12	17.95	1.71
	130.84	27.31	73.41	0.00	0.0624	10.66	469.2	362.89	0.0909	824.9	14.849	28.07	17.92	1.71
	131.83	27.31	73.38	0.00	0.0624	10.65	468.6	362.52	0.0911	827.6	14.897	28.17	17.97	1.71
	132.84	27.29	73.38	0.00	0.0623	10.64	468.0	362.05	0.0913	828.9	14.920	28.21	17.99	1.71
	133.84	27.31	73.38	-0.00	0.0624	10.66	468.9	362.79	0.0915	830.8	14.954	28.28	18.03	1.71
	134.84	27.31	73.41	-0.00	0.0623	10.63	467.8	361.80	0.0917	837.2	15.069	28.49	18.15	1.71
	135.84	27.31	73.41	-0.00	0.0622	10.62	467.2	361.31	0.0916	835.4	15.036	28.43	18.12	1.71
	136.86	27.31	73.38	-0.00	0.0623	10.62	467.4	361.63	0.0917	836.4	15.055	28.47	18.14	1.71
	137.84	27.31	73.41	-0.00	0.0623	10.62	467.5	361.55	0.0917	835.7	15.043	28.44	18.13	1.71
	138.83	27.31	73.41	0.00	0.0623	10.62	467.4	361.46	0.0914	834.4	15.020	28.40	18.10	1.71
	139.83	27.31	73.38	0.00	0.0623	10.61	467.0	361.32	0.0915	832.9	14.992	28.35	18.07	1.71
	140.84	27.33	73.38	-0.00	0.0622	10.62	467.4	361.63	0.0915	832.7	14.988	28.35	18.07	1.71
	141.83	27.31	73.41	0.00	0.0623	10.63	467.5	361.59	0.0915	836.7	15.060	28.47	18.14	1.71
	142.84	27.33	73.41	-0.00	0.0624	10.64	468.3	362.19	0.0918	837.5	15.075	28.50	18.16	1.71
	143.84	27.33	73.40	-0.00	0.0623	10.63	467.6	361.71	0.0918	836.0	15.048	28.45	18.13	1.71
	144.83	27.33	73.41	0.00	0.0623	10.58	465.7	360.22	0.0917	836.7	15.061	28.47	18.14	1.71
	145.84	27.33	73.41	0.00	0.0622	10.61	466.8	361.03	0.0918	834.6	15.023	28.40	18.11	1.71
	146.83	27.33	73.41	0.00	0.0621	10.59	466.2	360.55	0.0925	841.2	15.141	28.63	18.23	1.71
