Jul 29 2015 at 10:57:55
Frequency: 1.00Hz.
CO2
Zero:  Value:0.95  Date:18 Mar 2005	 at 07:22:33	
Span:  Value:1.00  Date:18 Mar 2005	 at 07:25:09	
H2O
Zero:  Value:0.71  Date:18 Mar 2005	 at 07:52:31	
Span:  Value:0.99  Date:18 Mar 2005	 at 11:44:01	
	Relative Time	Temperature	Pressure	Aux Input	CO2 Absorptance	CO2 mmol/m3	CO2 mg/m3	CO2 umol/mol	H2O Absorptance	H2O mmol/m3	H2O g/m3	H2O mmol/mol	H2O(°C)	Cooler Voltage
	0.67	31.30	73.43	0.00	0.0616	10.52	463.0	362.70	0.0861	745.4	13.417	25.69	16.52	1.72
	1.67	31.31	73.38	0.00	0.0632	10.79	474.8	372.27	0.0787	673.8	12.129	23.24	14.95	1.72
	2.67	31.29	73.38	0.00	0.0633	10.86	478.0	374.69	0.0789	661.6	11.909	22.82	14.66	1.72
	3.67	31.29	73.40	0.00	0.0628	10.80	475.1	372.30	0.0807	671.4	12.086	23.15	14.89	1.72
	4.67	31.33	73.40	0.00	0.0634	10.83	476.5	373.47	0.0769	649.3	11.687	22.39	14.37	1.72
	5.67	31.29	73.38	0.00	0.0634	10.89	479.2	375.64	0.0777	648.6	11.675	22.37	14.36	1.72
	6.67	31.31	73.38	0.00	0.0637	10.95	481.6	377.60	0.0769	637.4	11.473	21.99	14.09	1.72
	7.69	31.30	73.40	-0.00	0.0630	10.84	477.0	373.86	0.0799	663.8	11.949	22.89	14.72	1.72
	8.67	31.31	73.40	0.00	0.0623	10.60	466.5	365.63	0.0829	722.5	13.004	24.91	16.03	1.72
	9.69	31.31	73.41	-0.00	0.0624	10.61	466.8	365.85	0.0827	728.2	13.108	25.11	16.16	1.72
	10.69	31.29	73.38	-0.00	0.0617	10.53	463.5	363.32	0.0857	746.7	13.440	25.76	16.55	1.72
	11.69	31.33	73.38	-0.00	0.0634	10.74	472.4	370.39	0.0806	705.0	12.689	24.32	15.65	1.72
	12.75	31.35	73.35	0.00	0.0627	10.71	471.2	369.61	0.0833	724.3	13.038	25.00	16.08	1.72
	13.67	31.33	73.41	0.00	0.0630	10.79	474.6	371.95	0.0807	695.8	12.525	24.00	15.45	1.72
	14.67	31.31	73.38	-0.00	0.0634	10.88	478.7	375.27	0.0785	656.2	11.812	22.64	14.54	1.72
	15.67	31.33	73.40	0.00	0.0632	10.82	476.1	373.14	0.0808	683.2	12.297	23.56	15.16	1.72
	16.67	31.29	73.41	-0.00	0.0627	10.71	471.4	369.43	0.0805	692.0	12.457	23.86	15.36	1.72
	17.67	31.33	73.38	0.00	0.0627	10.73	472.1	370.12	0.0818	702.1	12.639	24.22	15.59	1.72
	18.73	31.35	73.38	0.00	0.0620	10.59	465.8	365.25	0.0840	727.7	13.099	25.11	16.15	1.72
	19.67	31.32	73.38	0.00	0.0623	10.60	466.4	365.64	0.0827	718.4	12.932	24.78	15.95	1.72
	20.67	31.30	73.38	0.00	0.0625	10.64	468.1	366.99	0.0817	710.3	12.786	24.50	15.77	1.72
	21.69	31.33	73.38	0.00	0.0626	10.68	469.8	368.36	0.0808	694.4	12.500	23.96	15.42	1.72
	22.67	31.33	73.41	0.00	0.0631	10.78	474.5	371.86	0.0774	654.1	11.773	22.56	14.49	1.72
	23.69	31.33	73.38	-0.00	0.0637	10.94	481.1	377.23	0.0750	616.8	11.102	21.28	13.58	1.72
	24.67	31.35	73.41	0.00	0.0632	10.79	474.9	372.23	0.0780	660.0	11.880	22.76	14.63	1.72
	25.69	31.31	73.41	-0.00	0.0633	10.88	478.8	375.26	0.0781	649.0	11.682	22.38	14.37	1.72
	26.69	31.35	73.38	-0.00	0.0635	10.88	478.7	375.34	0.0779	655.3	11.796	22.61	14.52	1.72
	27.67	31.35	73.41	-0.00	0.0639	10.98	482.9	378.51	0.0758	626.7	11.281	21.61	13.83	1.72
	28.67	31.35	73.38	0.00	0.0640	10.99	483.6	379.18	0.0754	624.0	11.232	21.53	13.76	1.72
	29.67	31.33	73.38	-0.00	0.0644	11.08	487.5	382.24	0.0751	618.3	11.129	21.33	13.62	1.72
	30.69	31.37	73.38	-0.00	0.0640	11.03	485.4	380.61	0.0759	622.8	11.211	21.49	13.73	1.72
	31.66	31.35	73.38	0.00	0.0643	11.04	485.8	380.93	0.0749	621.5	11.187	21.44	13.70	1.72
	32.69	31.35	73.38	-0.00	0.0646	11.13	489.5	383.83	0.0741	605.0	10.890	20.87	13.29	1.72
	33.67	31.35	73.41	0.00	0.0647	11.15	490.6	384.56	0.0739	602.5	10.845	20.78	13.22	1.72
	34.69	31.40	73.41	-0.00	0.0652	11.19	492.4	386.01	0.0743	610.0	10.980	21.04	13.42	1.72
	35.66	31.33	73.41	0.00	0.0648	11.21	493.2	386.55	0.0747	614.4	11.058	21.19	13.52	1.72
	36.67	31.37	73.41	0.00	0.0650	11.22	493.6	386.94	0.0746	612.8	11.030	21.13	13.48	1.72
	37.67	31.37	73.38	-0.00	0.0650	11.24	494.6	387.86	0.0746	612.7	11.028	21.14	13.48	1.72
	38.69	31.35	73.38	-0.00	0.0647	11.17	491.3	385.25	0.0747	612.7	11.028	21.14	13.48	1.72
	39.67	31.35	73.41	-0.00	0.0645	11.13	489.6	383.75	0.0747	614.8	11.067	21.20	13.53	1.72
	40.69	31.34	73.35	-0.00	0.0644	11.09	488.1	382.87	0.0745	612.8	11.030	21.15	13.48	1.72
	41.67	31.37	73.38	0.00	0.0644	11.10	488.4	382.96	0.0749	615.3	11.075	21.23	13.55	1.72
	42.66	31.37	73.38	0.00	0.0644	11.09	487.9	382.61	0.0756	624.7	11.244	21.55	13.78	1.72
	43.75	31.37	73.40	-0.00	0.0645	11.10	488.2	382.71	0.0759	627.4	11.293	21.64	13.85	1.72
	44.66	31.35	73.38	0.00	0.0643	11.08	487.6	382.30	0.0758	628.6	11.315	21.69	13.88	1.72
	45.67	31.39	73.43	0.00	0.0644	11.09	488.2	382.55	0.0761	629.0	11.322	21.69	13.89	1.72
	46.66	31.35	73.38	0.00	0.0645	11.09	488.0	382.62	0.0759	629.3	11.327	21.71	13.89	1.72
	47.75	31.35	73.38	0.00	0.0645	11.13	489.5	383.85	0.0760	630.9	11.357	21.77	13.93	1.72
	48.67	31.39	73.38	0.00	0.0644	11.10	488.6	383.16	0.0760	630.5	11.349	21.75	13.92	1.72
	49.69	31.37	73.41	-0.00	0.0648	11.18	491.7	385.43	0.0760	629.1	11.325	21.70	13.89	1.72
	50.66	31.37	73.38	0.00	0.0646	11.14	490.3	384.47	0.0762	631.3	11.364	21.78	13.94	1.72
	51.69	31.40	73.40	-0.00	0.0647	11.15	490.7	384.65	0.0762	631.6	11.369	21.79	13.95	1.72
	52.67	31.39	73.41	-0.00	0.0646	11.13	489.8	383.97	0.0763	631.6	11.370	21.79	13.95	1.72
	53.67	31.32	73.38	0.00	0.0645	11.11	488.7	383.18	0.0761	629.6	11.333	21.72	13.90	1.72
	54.66	31.39	73.41	0.00	0.0647	11.16	490.9	384.85	0.0765	635.7	11.442	21.93	14.05	1.72
	55.69	31.35	73.40	-0.00	0.0646	11.13	489.7	383.82	0.0763	631.7	11.370	21.79	13.95	1.72
	56.73	31.37	73.43	0.00	0.0646	11.15	490.6	384.42	0.0766	637.6	11.478	21.98	14.10	1.72
	57.67	31.38	73.40	0.00	0.0645	11.13	489.6	383.81	0.0766	637.1	11.467	21.97	14.08	1.72
	58.67	31.41	73.35	0.00	0.0645	11.11	488.9	383.59	0.0763	633.8	11.409	21.88	14.01	1.72
	59.66	31.33	73.41	0.00	0.0646	11.14	490.1	384.13	0.0766	639.0	11.502	22.04	14.13	1.72
	60.67	31.39	73.40	0.00	0.0646	11.13	489.9	384.02	0.0765	634.9	11.428	21.90	14.03	1.72
	61.66	31.37	73.35	0.00	0.0646	11.14	490.3	384.63	0.0769	640.9	11.537	22.12	14.18	1.72
	62.67	31.35	73.41	0.00	0.0646	11.13	489.6	383.78	0.0768	638.5	11.493	22.02	14.12	1.72
	63.67	31.37	73.38	-0.00	0.0646	11.14	489.9	384.18	0.0774	646.5	11.637	22.31	14.31	1.72
	64.67	31.42	73.41	0.00	0.0645	11.12	489.4	383.71	0.0774	646.0	11.627	22.28	14.30	1.72
	65.67	31.37	73.41	-0.00	0.0646	11.12	489.4	383.65	0.0773	646.2	11.631	22.29	14.30	1.72
	66.69	31.35	73.41	-0.00	0.0647	11.15	490.7	384.63	0.0775	648.8	11.679	22.38	14.36	1.72
	67.66	31.37	73.38	0.00	0.0645	11.10	488.4	382.96	0.0786	658.8	11.859	22.73	14.60	1.72
	68.67	31.37	73.41	0.00	0.0645	11.11	488.7	383.09	0.0787	665.8	11.985	22.96	14.77	1.72
	69.67	31.39	73.41	-0.00	0.0646	11.15	490.7	384.67	0.0781	656.3	11.813	22.64	14.54	1.72
	70.67	31.35	73.43	0.00	0.0645	11.12	489.4	383.48	0.0780	653.9	11.770	22.54	14.48	1.72
	71.66	31.36	73.41	0.00	0.0642	11.05	486.1	381.03	0.0787	665.3	11.976	22.95	14.75	1.72
	72.67	31.36	73.40	0.00	0.0646	11.12	489.5	383.67	0.0787	661.4	11.905	22.81	14.66	1.72
	73.66	31.37	73.38	0.00	0.0646	11.14	490.0	384.23	0.0779	654.5	11.780	22.58	14.50	1.72
	74.67	31.37	73.38	0.00	0.0646	11.14	490.0	384.22	0.0783	655.3	11.795	22.61	14.52	1.72
	75.67	31.39	73.41	-0.00	0.0645	11.15	490.5	384.50	0.0791	665.0	11.969	22.94	14.75	1.72
	76.66	31.41	73.41	0.00	0.0646	11.13	489.7	383.91	0.0791	669.2	12.046	23.09	14.85	1.72
	77.67	31.39	73.43	0.00	0.0646	11.15	490.7	384.51	0.0787	666.3	11.993	22.97	14.78	1.72
	78.66	31.39	73.41	0.00	0.0647	11.15	490.5	384.50	0.0789	661.6	11.909	22.82	14.67	1.72
	79.67	31.39	73.40	0.00	0.0647	11.16	491.1	384.96	0.0789	665.9	11.986	22.97	14.77	1.72
	80.67	31.39	73.43	-0.00	0.0647	11.16	491.0	384.79	0.0790	667.0	12.006	23.00	14.79	1.72
	81.67	31.39	73.41	0.00	0.0646	11.14	490.2	384.29	0.0785	661.6	11.908	22.82	14.67	1.72
	82.66	31.37	73.41	0.00	0.0647	11.16	490.8	384.74	0.0787	663.6	11.944	22.89	14.71	1.72
	83.75	31.34	73.40	-0.00	0.0646	11.14	490.1	384.13	0.0784	660.7	11.893	22.79	14.64	1.72
	84.66	31.36	73.38	0.00	0.0647	11.15	490.7	384.73	0.0790	667.2	12.009	23.02	14.80	1.72
	85.67	31.39	73.41	0.00	0.0647	11.16	490.8	384.77	0.0794	670.9	12.075	23.14	14.88	1.72
	86.67	31.39	73.43	-0.00	0.0647	11.16	490.9	384.69	0.0795	672.4	12.103	23.18	14.92	1.72
	87.67	31.39	73.38	0.00	0.0647	11.16	491.2	385.21	0.0798	676.5	12.178	23.34	15.01	1.72
	88.66	31.43	73.41	0.00	0.0647	11.15	490.4	384.48	0.0794	671.9	12.093	23.18	14.91	1.72
	89.69	31.39	73.40	0.00	0.0648	11.17	491.4	385.26	0.0799	677.0	12.186	23.35	15.02	1.72
	90.67	31.39	73.41	0.00	0.0647	11.16	490.9	384.84	0.0800	678.9	12.221	23.42	15.07	1.72
	91.69	31.41	73.38	-0.00	0.0647	11.15	490.8	384.88	0.0797	676.0	12.168	23.33	15.00	1.72
	92.66	31.37	73.41	0.00	0.0647	11.16	491.1	384.96	0.0804	683.6	12.305	23.58	15.18	1.72
	93.69	31.39	73.40	0.00	0.0645	11.10	488.3	382.79	0.0802	680.9	12.256	23.49	15.11	1.72
	94.67	31.43	73.41	0.00	0.0645	11.11	488.8	383.19	0.0800	679.3	12.227	23.43	15.08	1.72
	95.67	31.39	73.38	-0.00	0.0645	11.10	488.5	383.05	0.0806	686.9	12.364	23.70	15.25	1.72
	96.67	31.39	73.40	0.00	0.0646	11.11	489.0	383.30	0.0802	682.4	12.283	23.54	15.15	1.72
	97.66	31.38	73.41	0.00	0.0647	11.16	491.0	384.90	0.0804	685.0	12.330	23.63	15.21	1.72
	98.67	31.38	73.40	-0.00	0.0647	11.16	490.9	384.85	0.0803	683.5	12.302	23.57	15.17	1.72
	99.66	31.39	73.38	0.00	0.0644	11.10	488.5	383.05	0.0805	685.3	12.335	23.64	15.21	1.72
	100.67	31.43	73.38	-0.00	0.0645	11.11	488.9	383.44	0.0806	688.2	12.388	23.75	15.28	1.72
	101.66	31.41	73.38	0.00	0.0646	11.13	489.9	384.20	0.0806	687.1	12.367	23.71	15.26	1.72
	102.67	31.38	73.38	-0.00	0.0646	11.15	490.5	384.65	0.0806	688.3	12.390	23.75	15.28	1.72
	103.67	31.41	73.41	-0.00	0.0645	11.12	489.3	383.57	0.0805	684.9	12.329	23.63	15.21	1.72
	104.67	31.41	73.38	0.00	0.0646	11.13	489.8	384.09	0.0806	687.8	12.381	23.73	15.27	1.72
	105.67	31.43	73.40	-0.00	0.0645	11.11	488.9	383.29	0.0809	690.3	12.426	23.81	15.33	1.73
	106.69	31.41	73.41	0.00	0.0646	11.12	489.4	383.67	0.0809	691.8	12.453	23.86	15.36	1.72
	107.67	31.37	73.38	-0.00	0.0646	11.13	489.8	384.05	0.0809	691.4	12.446	23.86	15.35	1.72
	108.66	31.41	73.38	0.00	0.0645	11.12	489.1	383.56	0.0810	690.6	12.431	23.83	15.33	1.72
	109.67	31.41	73.35	-0.00	0.0644	11.10	488.5	383.24	0.0810	693.4	12.481	23.94	15.40	1.72
	110.66	31.41	73.38	0.00	0.0644	11.08	487.7	382.50	0.0812	693.9	12.491	23.95	15.41	1.73
	111.67	31.39	73.38	-0.00	0.0644	11.10	488.5	383.04	0.0812	695.6	12.521	24.00	15.45	1.72
	112.67	31.39	73.38	-0.00	0.0645	11.11	488.7	383.20	0.0812	695.7	12.523	24.01	15.45	1.72
	113.73	31.41	73.38	0.00	0.0645	11.10	488.5	383.12	0.0813	695.2	12.514	23.99	15.44	1.72
	114.67	31.37	73.41	-0.00	0.0645	11.12	489.1	383.41	0.0819	704.2	12.676	24.29	15.64	1.72
	115.67	31.41	73.35	-0.00	0.0643	11.10	488.3	383.09	0.0818	706.3	12.714	24.38	15.69	1.72
	116.67	31.41	73.40	-0.00	0.0641	11.04	485.6	380.69	0.0816	699.6	12.592	24.13	15.54	1.73
	117.67	31.37	73.38	-0.00	0.0642	11.04	485.8	380.94	0.0818	702.8	12.650	24.25	15.61	1.72
	118.67	31.38	73.40	-0.00	0.0644	11.09	488.0	382.52	0.0818	701.3	12.624	24.19	15.57	1.72
	119.67	31.38	73.41	0.00	0.0645	11.12	489.3	383.53	0.0820	703.4	12.661	24.26	15.62	1.72
	120.67	31.41	73.38	-0.00	0.0646	11.12	489.5	383.88	0.0822	708.2	12.748	24.44	15.73	1.72
	121.67	31.41	73.35	-0.00	0.0646	11.15	490.4	384.77	0.0823	707.0	12.727	24.41	15.70	1.72
	122.67	31.43	73.40	-0.00	0.0643	11.09	487.7	382.41	0.0821	707.9	12.742	24.42	15.72	1.73
	123.69	31.39	73.40	-0.00	0.0644	11.10	488.4	382.90	0.0826	712.8	12.830	24.58	15.83	1.72
