Jul 29 2015 at 11:09:33
Frequency: 1.00Hz.
CO2
Zero:  Value:0.95  Date:18 Mar 2005	 at 07:22:33	
Span:  Value:1.00  Date:18 Mar 2005	 at 07:25:09	
H2O
Zero:  Value:0.71  Date:18 Mar 2005	 at 07:52:31	
Span:  Value:0.99  Date:18 Mar 2005	 at 11:44:01	
	Relative Time	Temperature	Pressure	Aux Input	CO2 Absorptance	CO2 mmol/m3	CO2 mg/m3	CO2 umol/mol	H2O Absorptance	H2O mmol/m3	H2O g/m3	H2O mmol/mol	H2O(°C)	Cooler Voltage
	0.50	31.34	73.41	0.00	0.0669	11.65	512.7	401.82	0.0389	243.6	4.386	8.40	0.07	1.71
	1.49	31.35	73.43	0.00	0.0669	11.63	511.8	401.03	0.0392	253.5	4.562	8.74	0.62	1.71
	2.48	31.41	73.38	0.00	0.0668	11.64	512.0	401.53	0.0387	246.7	4.440	8.51	0.24	1.71
	3.50	31.36	73.41	-0.00	0.0668	11.60	510.2	399.93	0.0387	247.9	4.463	8.55	0.31	1.71
	4.50	31.37	73.43	-0.00	0.0665	11.61	510.8	400.26	0.0392	252.0	4.536	8.69	0.54	1.71
	5.50	31.37	73.41	-0.00	0.0666	11.60	510.3	399.99	0.0403	260.1	4.682	8.97	0.97	1.71
	6.50	31.37	73.41	0.00	0.0664	11.57	508.9	398.90	0.0406	266.3	4.793	9.18	1.30	1.71
	7.49	31.37	73.43	0.00	0.0666	11.57	509.3	399.06	0.0413	269.6	4.853	9.30	1.47	1.70
	8.48	31.39	73.41	-0.00	0.0664	11.56	508.7	398.82	0.0412	269.2	4.846	9.29	1.46	1.71
	9.50	31.41	73.41	-0.00	0.0665	11.56	508.6	398.69	0.0419	273.8	4.928	9.44	1.69	1.71
	10.48	31.36	73.43	0.00	0.0663	11.50	506.0	396.45	0.0440	288.9	5.201	9.96	2.44	1.71
	11.50	31.37	73.43	-0.00	0.0660	11.47	504.5	395.31	0.0472	312.6	5.628	10.78	3.56	1.70
	12.58	31.35	73.41	-0.00	0.0659	11.43	503.0	394.27	0.0487	331.7	5.970	11.44	4.40	1.70
	13.48	31.36	73.43	0.00	0.0657	11.36	499.8	391.63	0.0516	362.7	6.529	12.51	5.68	1.70
	14.50	31.42	73.43	-0.00	0.0655	11.35	499.2	391.23	0.0550	384.7	6.925	13.27	6.54	1.71
	15.48	31.37	73.41	0.00	0.0654	11.31	497.5	389.94	0.0568	406.5	7.318	14.02	7.34	1.71
	16.48	31.39	73.43	0.00	0.0651	11.27	495.7	388.44	0.0612	446.9	8.044	15.41	8.73	1.70
	17.48	31.36	73.41	0.00	0.0653	11.29	496.9	389.48	0.0572	409.4	7.369	14.12	7.44	1.70
	18.48	31.37	73.41	0.00	0.0652	11.28	496.1	388.91	0.0612	462.4	8.322	15.95	9.23	1.70
	19.48	31.41	73.41	0.00	0.0653	11.28	496.2	388.99	0.0605	452.2	8.139	15.60	8.90	1.70
	20.50	31.39	73.41	-0.00	0.0652	11.28	496.4	389.16	0.0607	447.4	8.053	15.43	8.75	1.71
	21.56	31.39	73.41	0.00	0.0650	11.24	494.7	387.78	0.0634	481.9	8.675	16.62	9.85	1.71
	22.50	31.37	73.43	0.00	0.0649	11.21	493.1	386.36	0.0642	485.4	8.738	16.74	9.96	1.70
	23.50	31.36	73.41	-0.00	0.0648	11.16	491.2	385.01	0.0656	510.3	9.185	17.60	10.70	1.70
	24.48	31.37	73.41	0.00	0.0648	11.17	491.7	385.41	0.0654	510.5	9.190	17.61	10.71	1.70
	25.48	31.39	73.40	-0.00	0.0647	11.16	491.1	385.01	0.0636	487.3	8.771	16.81	10.02	1.70
	26.50	31.39	73.41	-0.00	0.0647	11.17	491.5	385.30	0.0650	501.0	9.018	17.28	10.43	1.70
	27.48	31.39	73.40	0.00	0.0646	11.14	490.3	384.37	0.0645	496.6	8.939	17.13	10.30	1.70
	28.48	31.38	73.41	0.00	0.0645	11.12	489.2	383.50	0.0670	523.7	9.426	18.06	11.10	1.70
	29.58	31.39	73.41	-0.00	0.0643	11.09	487.8	382.37	0.0666	527.1	9.488	18.18	11.19	1.70
	30.48	31.39	73.43	0.00	0.0644	11.10	488.2	382.59	0.0681	535.7	9.643	18.47	11.44	1.70
	31.48	31.43	73.41	0.00	0.0644	11.09	488.2	382.72	0.0689	548.7	9.877	18.93	11.80	1.70
	32.48	31.41	73.43	0.00	0.0645	11.12	489.1	383.34	0.0654	506.7	9.121	17.47	10.60	1.70
	33.48	31.39	73.43	0.00	0.0647	11.16	491.0	384.80	0.0620	471.7	8.491	16.26	9.53	1.70
	34.50	31.46	73.43	-0.00	0.0646	11.13	489.9	384.01	0.0629	477.9	8.603	16.48	9.73	1.70
	35.50	31.43	73.41	-0.00	0.0646	11.16	491.1	385.06	0.0621	466.8	8.402	16.10	9.38	1.70
	36.48	31.40	73.43	0.00	0.0647	11.12	489.3	383.45	0.0637	491.0	8.837	16.93	10.13	1.70
	37.50	31.41	73.43	0.00	0.0645	11.12	489.2	383.38	0.0648	496.3	8.933	17.11	10.29	1.70
	38.48	31.41	73.43	0.00	0.0646	11.11	488.9	383.16	0.0648	501.9	9.033	17.31	10.46	1.71
	39.48	31.43	73.41	0.00	0.0642	11.03	485.4	380.60	0.0704	557.4	10.034	19.23	12.04	1.70
	40.50	31.41	73.43	-0.00	0.0643	11.04	485.9	380.84	0.0689	555.6	10.001	19.16	11.99	1.70
	41.50	31.49	73.41	-0.00	0.0642	11.06	486.6	381.57	0.0694	552.1	9.938	19.05	11.90	1.70
	42.56	31.43	73.41	0.00	0.0641	11.03	485.5	380.61	0.0687	539.4	9.709	18.61	11.54	1.70
	43.48	31.44	73.41	0.00	0.0643	11.07	487.1	381.94	0.0675	528.5	9.514	18.23	11.24	1.70
	44.48	31.47	73.43	0.00	0.0643	11.07	487.2	381.92	0.0678	528.8	9.519	18.24	11.25	1.70
	45.50	31.43	73.46	-0.00	0.0643	11.07	486.9	381.50	0.0683	535.9	9.646	18.47	11.45	1.70
	46.48	31.47	73.43	0.00	0.0643	11.07	487.0	381.75	0.0687	538.6	9.694	18.57	11.52	1.70
	47.50	31.44	73.41	-0.00	0.0640	11.01	484.5	379.88	0.0722	577.6	10.397	19.93	12.58	1.70
	48.48	31.47	73.38	0.00	0.0640	10.99	483.8	379.46	0.0721	581.4	10.466	20.07	12.69	1.70
	49.50	31.43	73.43	-0.00	0.0640	10.96	482.2	377.88	0.0710	580.2	10.444	20.01	12.65	1.70
	50.48	31.42	73.41	0.00	0.0640	11.00	483.9	379.35	0.0706	567.9	10.222	19.59	12.32	1.70
	51.48	31.45	73.43	0.00	0.0640	11.00	483.8	379.22	0.0719	586.3	10.553	20.22	12.81	1.70
	52.50	31.45	73.41	-0.00	0.0640	11.01	484.6	379.97	0.0730	588.2	10.588	20.29	12.86	1.70
	53.50	31.41	73.40	-0.00	0.0639	10.98	483.2	378.84	0.0737	601.3	10.824	20.74	13.20	1.70
	54.48	31.41	73.43	0.00	0.0639	11.00	484.1	379.40	0.0722	583.9	10.509	20.13	12.75	1.70
	55.50	31.41	73.43	0.00	0.0641	11.02	484.8	379.90	0.0719	577.5	10.395	19.91	12.58	1.70
	56.48	31.41	73.41	0.00	0.0639	11.01	484.5	379.83	0.0724	577.0	10.386	19.90	12.57	1.70
	57.48	31.38	73.43	-0.00	0.0638	10.98	483.2	378.67	0.0755	610.8	10.994	21.06	13.43	1.70
	58.48	31.43	73.41	0.00	0.0638	10.96	482.4	378.19	0.0752	630.0	11.341	21.73	13.92	1.70
	59.48	31.40	73.43	0.00	0.0637	10.94	481.3	377.19	0.0773	639.9	11.518	22.07	14.15	1.70
	60.48	31.39	73.41	0.00	0.0637	10.90	479.7	376.08	0.0767	645.4	11.617	22.26	14.28	1.70
	61.55	31.41	73.43	0.00	0.0638	10.96	482.2	377.87	0.0756	623.9	11.230	21.51	13.76	1.70
	62.50	31.38	73.43	-0.00	0.0637	10.94	481.3	377.18	0.0751	620.6	11.170	21.40	13.68	1.70
	63.48	31.39	73.43	0.00	0.0636	10.91	480.2	376.28	0.0751	622.8	11.211	21.48	13.74	1.70
	64.48	31.39	73.43	0.00	0.0638	10.95	481.7	377.51	0.0739	606.6	10.918	20.91	13.33	1.70
	65.48	31.43	73.41	0.00	0.0638	10.96	482.2	378.03	0.0735	598.9	10.780	20.66	13.14	1.70
	66.48	31.41	73.41	0.00	0.0638	10.96	482.0	377.92	0.0739	611.8	11.013	21.11	13.46	1.70
	67.56	31.41	73.43	-0.00	0.0638	10.97	482.5	378.13	0.0736	597.6	10.757	20.61	13.10	1.71
	68.48	31.41	73.41	0.00	0.0639	10.98	483.1	378.72	0.0729	591.1	10.640	20.39	12.94	1.70
	69.56	31.39	73.43	-0.00	0.0638	10.96	482.2	377.88	0.0734	597.9	10.763	20.62	13.11	1.70
	70.50	31.39	73.41	0.00	0.0636	10.92	480.4	376.61	0.0747	611.6	11.009	21.10	13.46	1.70
	71.48	31.39	73.41	0.00	0.0634	10.91	480.1	376.32	0.0755	622.4	11.204	21.47	13.73	1.70
	72.47	31.41	73.41	0.00	0.0636	10.89	479.3	375.76	0.0751	627.6	11.296	21.65	13.85	1.71
	73.50	31.41	73.41	-0.00	0.0635	10.90	479.6	376.01	0.0748	612.5	11.025	21.13	13.48	1.70
	74.48	31.41	73.41	-0.00	0.0633	10.86	478.0	374.74	0.0779	643.5	11.583	22.20	14.24	1.70
	75.48	31.41	73.41	0.00	0.0633	10.84	477.1	374.05	0.0779	652.8	11.751	22.52	14.46	1.70
	76.48	31.39	73.43	-0.00	0.0634	10.87	478.1	374.63	0.0761	631.0	11.358	21.76	13.94	1.70
	77.48	31.41	73.43	0.00	0.0633	10.85	477.3	374.07	0.0772	639.8	11.517	22.06	14.15	1.70
	78.48	31.39	73.41	-0.00	0.0630	10.81	475.8	372.99	0.0806	679.7	12.235	23.44	15.09	1.71
	79.50	31.39	73.43	-0.00	0.0631	10.81	475.5	372.62	0.0799	678.6	12.215	23.40	15.06	1.71
	80.48	31.41	73.43	-0.00	0.0631	10.80	475.0	372.26	0.0801	686.2	12.351	23.66	15.23	1.70
	81.50	31.39	73.41	-0.00	0.0632	10.80	475.2	372.50	0.0790	663.9	11.951	22.90	14.72	1.70
	82.48	31.41	73.43	0.00	0.0631	10.82	475.9	372.96	0.0787	663.4	11.942	22.88	14.71	1.70
	83.48	31.44	73.43	0.00	0.0631	10.79	474.6	371.98	0.0799	667.4	12.013	23.02	14.81	1.70
	84.48	31.39	73.43	0.00	0.0629	10.77	473.8	371.27	0.0813	695.9	12.526	23.99	15.45	1.71
	85.48	31.41	73.41	0.00	0.0629	10.77	473.9	371.49	0.0796	665.7	11.982	22.96	14.76	1.71
	86.48	31.43	73.41	-0.00	0.0628	10.73	472.3	370.30	0.0817	702.3	12.641	24.23	15.60	1.70
	87.50	31.43	73.43	0.00	0.0629	10.76	473.4	371.05	0.0794	677.1	12.188	23.35	15.03	1.70
	88.48	31.43	73.41	0.00	0.0630	10.78	474.1	371.74	0.0792	670.4	12.068	23.13	14.88	1.71
	89.47	31.39	73.41	0.00	0.0629	10.75	473.2	370.92	0.0794	673.9	12.130	23.24	14.95	1.71
	90.48	31.40	73.41	0.00	0.0629	10.76	473.5	371.20	0.0790	669.7	12.055	23.10	14.86	1.71
	91.48	31.43	73.43	-0.00	0.0629	10.76	473.2	370.91	0.0791	666.7	12.000	22.99	14.79	1.71
	92.50	31.41	73.38	-0.00	0.0627	10.74	472.6	370.61	0.0809	683.9	12.310	23.60	15.18	1.70
	93.47	31.38	73.43	0.00	0.0626	10.71	471.1	369.14	0.0816	697.6	12.557	24.05	15.49	1.71
	94.48	31.39	73.41	0.00	0.0626	10.71	471.2	369.39	0.0825	708.6	12.755	24.44	15.74	1.70
	95.47	31.39	73.43	0.00	0.0626	10.68	470.0	368.33	0.0829	718.1	12.925	24.76	15.94	1.70
	96.48	31.39	73.41	0.00	0.0627	10.72	471.6	369.66	0.0813	697.2	12.550	24.05	15.48	1.71
	97.48	31.41	73.43	0.00	0.0627	10.71	471.0	369.15	0.0820	701.4	12.626	24.19	15.58	1.70
	98.48	31.39	73.38	0.00	0.0626	10.70	470.7	369.09	0.0818	706.7	12.721	24.38	15.69	1.70
	99.48	31.41	73.38	0.00	0.0627	10.71	471.3	369.64	0.0822	706.3	12.713	24.37	15.69	1.70
	100.48	31.41	73.43	0.00	0.0624	10.66	469.2	367.71	0.0834	723.4	13.021	24.94	16.06	1.70
	101.48	31.41	73.41	0.00	0.0623	10.65	468.6	367.37	0.0838	729.1	13.124	25.15	16.18	1.71
	102.50	31.47	73.41	-0.00	0.0623	10.65	468.7	367.52	0.0837	727.6	13.097	25.10	16.15	1.71
	103.48	31.40	73.41	-0.00	0.0624	10.65	468.7	367.40	0.0837	726.8	13.082	25.07	16.13	1.71
	104.48	31.41	73.43	-0.00	0.0624	10.66	469.2	367.69	0.0838	728.6	13.114	25.12	16.17	1.70
	105.48	31.43	73.43	0.00	0.0624	10.66	468.9	367.49	0.0835	723.7	13.026	24.96	16.07	1.70
	106.48	31.41	73.43	-0.00	0.0623	10.64	468.2	366.92	0.0844	731.5	13.167	25.22	16.23	1.70
	107.56	31.41	73.41	-0.00	0.0624	10.63	467.8	366.73	0.0842	738.2	13.288	25.46	16.38	1.71
	108.48	31.42	73.41	-0.00	0.0623	10.62	467.3	366.38	0.0846	737.6	13.277	25.44	16.37	1.71
	109.48	31.43	73.43	0.00	0.0622	10.61	466.9	365.95	0.0841	737.4	13.274	25.43	16.36	1.71
	110.47	31.42	73.41	0.00	0.0622	10.60	466.6	365.78	0.0840	740.4	13.327	25.54	16.43	1.71
	111.48	31.43	73.40	0.00	0.0620	10.57	465.2	364.76	0.0856	750.7	13.513	25.90	16.64	1.70
	112.48	31.41	73.46	0.00	0.0620	10.57	465.0	364.29	0.0853	747.5	13.454	25.77	16.57	1.71
	113.48	31.41	73.41	0.00	0.0621	10.57	465.3	364.75	0.0854	755.3	13.595	26.05	16.74	1.71
	114.55	31.45	73.43	0.00	0.0619	10.55	464.3	363.93	0.0859	757.7	13.639	26.13	16.79	1.71
	115.48	31.41	73.41	0.00	0.0618	10.52	462.7	362.74	0.0875	777.0	13.985	26.80	17.18	1.70
	116.48	31.41	73.41	-0.00	0.0620	10.55	464.1	363.87	0.0865	766.9	13.804	26.45	16.98	1.71
	117.50	31.41	73.41	-0.00	0.0620	10.57	465.3	364.77	0.0857	749.4	13.489	25.85	16.61	1.70
	118.55	31.41	73.41	0.00	0.0620	10.55	464.0	363.77	0.0856	759.7	13.674	26.20	16.83	1.71
	119.47	31.43	73.41	0.00	0.0620	10.56	464.7	364.36	0.0857	751.1	13.519	25.91	16.65	1.71
	120.48	31.43	73.41	-0.00	0.0620	10.58	465.3	364.82	0.0850	736.5	13.257	25.41	16.34	1.71
	121.47	31.41	73.43	0.00	0.0623	10.61	466.8	365.80	0.0818	710.3	12.786	24.49	15.77	1.71
	122.48	31.41	73.40	0.00	0.0621	10.60	466.4	365.67	0.0829	713.5	12.844	24.61	15.85	1.71
