Jul 29 2015 at 14:53:12
Frequency: 1.00Hz.
CO2
Zero:  Value:0.95  Date:18 Mar 2005	 at 07:22:33	
Span:  Value:1.00  Date:18 Mar 2005	 at 07:25:09	
H2O
Zero:  Value:0.71  Date:18 Mar 2005	 at 07:52:31	
Span:  Value:0.99  Date:18 Mar 2005	 at 11:44:01	
	Relative Time	Temperature	Pressure	Aux Input	CO2 Absorptance	CO2 mmol/m3	CO2 mg/m3	CO2 umol/mol	H2O Absorptance	H2O mmol/m3	H2O g/m3	H2O mmol/mol	H2O(°C)	Cooler Voltage
	0.92	36.38	73.77	0.00	0.0655	11.31	497.7	394.57	0.0464	316.0	5.688	11.02	3.94	1.72
	1.91	36.38	73.80	0.00	0.0654	11.29	496.8	393.78	0.0465	312.7	5.629	10.90	3.79	1.72
	2.91	36.35	73.77	0.00	0.0654	11.30	497.3	394.25	0.0464	314.5	5.660	10.97	3.87	1.72
	3.92	36.35	73.77	0.00	0.0654	11.31	497.6	394.49	0.0469	319.2	5.745	11.13	4.08	1.72
	4.91	36.37	73.77	0.00	0.0654	11.30	497.2	394.22	0.0475	322.3	5.801	11.24	4.22	1.73
	5.92	36.31	73.80	-0.00	0.0653	11.25	495.2	392.35	0.0479	330.9	5.955	11.53	4.59	1.73
	6.91	36.35	73.77	0.00	0.0653	11.30	497.1	394.11	0.0485	330.4	5.947	11.53	4.57	1.72
	7.91	36.38	73.80	0.00	0.0651	11.24	494.4	391.83	0.0501	346.8	6.242	12.09	5.27	1.72
	8.92	36.38	73.77	-0.00	0.0653	11.33	498.4	395.17	0.0502	349.8	6.296	12.20	5.39	1.72
	9.91	36.37	73.82	0.00	0.0653	11.28	496.2	393.15	0.0502	351.3	6.323	12.25	5.45	1.72
	10.92	36.38	73.80	0.00	0.0653	11.26	495.3	392.57	0.0506	349.0	6.281	12.17	5.36	1.73
	11.92	36.38	73.82	-0.00	0.0653	11.26	495.6	392.64	0.0510	358.8	6.458	12.51	5.76	1.73
	12.92	36.35	73.80	0.00	0.0651	11.22	493.9	391.38	0.0514	362.3	6.522	12.63	5.90	1.72
	13.91	36.38	73.74	-0.00	0.0651	11.24	494.4	392.16	0.0516	358.5	6.453	12.51	5.75	1.72
	14.92	36.39	73.80	-0.00	0.0650	11.20	492.7	390.49	0.0524	368.3	6.630	12.84	6.14	1.72
	15.91	36.35	73.80	0.00	0.0649	11.22	493.5	391.09	0.0532	375.9	6.767	13.11	6.43	1.72
	16.91	36.44	73.77	0.00	0.0649	11.21	493.0	390.97	0.0534	378.2	6.807	13.20	6.52	1.73
	17.91	36.38	73.77	0.00	0.0648	11.18	491.8	389.95	0.0541	384.4	6.920	13.41	6.76	1.73
	18.92	36.37	73.77	-0.00	0.0649	11.17	491.5	389.70	0.0536	388.6	6.995	13.56	6.92	1.72
	19.91	36.37	73.80	0.00	0.0648	11.15	490.6	388.84	0.0546	387.9	6.982	13.53	6.89	1.72
	20.91	36.37	73.82	0.00	0.0648	11.14	490.1	388.29	0.0551	396.0	7.128	13.80	7.19	1.72
	21.91	36.35	73.80	0.00	0.0648	11.19	492.2	390.10	0.0540	381.1	6.859	13.29	6.63	1.73
	22.92	36.36	73.80	-0.00	0.0648	11.14	490.2	388.48	0.0541	388.7	6.997	13.56	6.92	1.73
	23.91	36.35	73.77	0.00	0.0649	11.19	492.5	390.44	0.0538	379.9	6.838	13.25	6.59	1.73
	24.92	36.37	73.77	-0.00	0.0645	11.10	488.2	387.08	0.0552	397.9	7.162	13.88	7.26	1.72
	25.91	36.36	73.77	0.00	0.0651	11.18	492.1	390.15	0.0532	384.4	6.918	13.41	6.76	1.72
	26.91	36.33	73.80	0.00	0.0648	11.16	491.2	389.24	0.0548	392.0	7.056	13.67	7.04	1.72
	27.91	36.36	73.80	0.00	0.0645	11.13	489.5	387.94	0.0575	406.9	7.324	14.19	7.59	1.73
	28.91	36.30	73.80	0.00	0.0644	11.08	487.7	386.44	0.0576	423.4	7.620	14.76	8.17	1.72
	29.91	36.38	73.80	0.00	0.0646	11.11	488.9	387.47	0.0572	419.8	7.556	14.64	8.05	1.72
	30.91	36.34	73.77	-0.00	0.0645	11.10	488.4	387.15	0.0588	429.3	7.728	14.98	8.38	1.73
	31.91	36.35	73.77	0.00	0.0644	11.10	488.2	387.04	0.0595	432.9	7.792	15.10	8.50	1.73
	32.91	36.34	73.80	0.00	0.0647	11.10	488.6	387.18	0.0572	426.2	7.672	14.86	8.27	1.72
	33.98	36.41	73.77	-0.00	0.0646	11.15	490.7	389.11	0.0573	410.3	7.385	14.31	7.71	1.73
	34.89	36.37	73.77	0.00	0.0645	11.11	488.6	387.40	0.0584	426.5	7.676	14.88	8.28	1.72
	35.92	36.35	73.80	-0.00	0.0644	11.08	487.6	386.45	0.0597	441.6	7.950	15.40	8.79	1.73
	36.92	36.37	73.80	-0.00	0.0645	11.09	487.8	386.63	0.0601	450.6	8.110	15.71	9.09	1.72
	37.91	36.35	73.80	0.00	0.0643	11.04	485.6	384.81	0.0603	455.0	8.190	15.87	9.24	1.73
	38.92	36.35	73.80	-0.00	0.0642	11.07	486.9	385.85	0.0616	449.7	8.094	15.68	9.06	1.72
	39.92	36.37	73.80	0.00	0.0643	11.05	486.2	385.33	0.0607	461.0	8.297	16.07	9.43	1.73
	40.92	36.38	73.77	-0.00	0.0644	11.07	487.2	386.26	0.0615	470.1	8.462	16.40	9.72	1.73
	41.92	36.35	73.80	-0.00	0.0644	11.08	487.3	386.19	0.0603	458.3	8.249	15.98	9.34	1.73
	42.91	36.38	73.80	0.00	0.0644	11.10	488.4	387.10	0.0598	443.5	7.983	15.47	8.86	1.73
	43.91	36.35	73.77	0.00	0.0645	11.08	487.3	386.33	0.0603	459.1	8.264	16.02	9.37	1.72
	44.98	36.38	73.80	0.00	0.0644	11.06	486.5	385.54	0.0616	463.3	8.340	16.16	9.51	1.73
	45.92	36.33	73.77	-0.00	0.0643	11.06	486.7	385.78	0.0615	460.0	8.280	16.04	9.40	1.73
	46.91	36.36	73.80	0.00	0.0645	11.09	488.1	386.83	0.0602	449.0	8.082	15.66	9.04	1.73
	47.91	36.36	73.77	0.00	0.0642	11.05	486.0	385.31	0.0626	468.6	8.435	16.35	9.67	1.73
	48.91	36.36	73.77	0.00	0.0641	10.97	482.7	382.68	0.0641	497.0	8.946	17.34	10.55	1.72
	49.92	36.35	73.80	-0.00	0.0639	10.96	482.4	382.27	0.0648	497.3	8.951	17.34	10.56	1.73
	50.98	36.32	73.80	-0.00	0.0639	10.99	483.4	383.08	0.0647	493.8	8.888	17.22	10.45	1.73
	51.89	36.35	73.77	0.00	0.0643	11.03	485.3	384.74	0.0631	482.9	8.692	16.84	10.12	1.73
	52.91	36.37	73.80	0.00	0.0641	11.01	484.3	383.79	0.0651	502.5	9.044	17.52	10.72	1.73
	53.91	36.38	73.80	0.00	0.0641	11.03	485.3	384.66	0.0661	496.9	8.944	17.33	10.55	1.73
	54.91	36.34	73.80	0.00	0.0641	11.01	484.2	383.73	0.0668	513.4	9.241	17.90	11.04	1.73
	55.91	36.36	73.80	0.00	0.0640	10.98	483.3	382.98	0.0662	514.7	9.265	17.95	11.08	1.73
	56.92	36.35	73.77	0.00	0.0642	11.01	484.6	384.17	0.0642	496.6	8.940	17.32	10.54	1.73
	57.98	36.34	73.80	0.00	0.0642	11.03	485.4	384.66	0.0640	491.3	8.843	17.13	10.38	1.73
	58.89	36.37	73.80	0.00	0.0640	11.00	484.1	383.65	0.0672	520.0	9.361	18.13	11.24	1.73
	59.92	36.37	73.80	-0.00	0.0639	10.97	482.5	382.39	0.0682	532.9	9.592	18.58	11.60	1.73
	60.91	36.35	73.80	0.00	0.0639	10.97	482.5	382.36	0.0678	528.3	9.510	18.42	11.47	1.73
	61.91	36.40	73.77	-0.00	0.0639	10.94	481.5	381.73	0.0682	536.2	9.652	18.71	11.70	1.73
	62.92	36.40	73.77	-0.00	0.0638	10.94	481.2	381.49	0.0681	542.1	9.758	18.91	11.86	1.73
	63.92	36.41	73.80	-0.00	0.0639	10.97	482.8	382.70	0.0672	525.9	9.466	18.34	11.41	1.73
	64.98	36.37	73.80	-0.00	0.0638	10.95	481.9	381.94	0.0686	536.3	9.653	18.70	11.70	1.73
	65.91	36.37	73.77	-0.00	0.0637	10.93	480.9	381.23	0.0693	544.6	9.802	19.00	11.93	1.73
	66.92	36.36	73.80	-0.00	0.0638	10.93	480.8	381.05	0.0688	546.1	9.830	19.04	11.98	1.73
	67.91	36.41	73.77	0.00	0.0637	10.93	480.7	381.17	0.0697	548.1	9.865	19.12	12.03	1.73
	68.91	36.37	73.72	0.00	0.0637	10.89	479.1	380.12	0.0695	561.2	10.102	19.59	12.39	1.73
	69.92	36.43	73.77	-0.00	0.0635	10.87	478.2	379.23	0.0709	570.7	10.272	19.91	12.65	1.73
	70.91	36.43	73.77	0.00	0.0637	10.92	480.7	381.15	0.0702	560.4	10.088	19.55	12.37	1.73
	71.91	36.36	73.80	0.00	0.0637	10.93	480.8	381.06	0.0703	559.5	10.071	19.51	12.34	1.73
	72.89	36.36	73.77	0.00	0.0636	10.90	479.5	380.16	0.0714	571.5	10.286	19.93	12.67	1.73
	73.92	36.36	73.80	-0.00	0.0637	10.90	479.7	380.17	0.0707	571.5	10.287	19.93	12.67	1.73
	74.91	36.43	73.77	0.00	0.0636	10.91	480.1	380.67	0.0713	571.4	10.285	19.94	12.67	1.73
	75.91	36.38	73.77	-0.00	0.0636	10.93	480.9	381.28	0.0719	568.7	10.237	19.84	12.59	1.73
	76.92	36.40	73.77	-0.00	0.0635	10.87	478.1	379.04	0.0719	585.3	10.535	20.42	13.03	1.73
	77.91	36.43	73.80	0.00	0.0635	10.87	478.4	379.18	0.0725	586.2	10.551	20.44	13.06	1.73
	78.97	36.43	73.80	0.00	0.0635	10.87	478.5	379.29	0.0719	588.5	10.593	20.53	13.12	1.73
	79.91	36.40	73.80	-0.00	0.0635	10.90	479.4	379.98	0.0731	583.8	10.509	20.36	12.99	1.73
	80.92	36.43	73.80	0.00	0.0635	10.86	477.7	378.69	0.0729	598.2	10.768	20.86	13.37	1.73
	81.91	36.42	73.80	0.00	0.0636	10.90	479.6	380.14	0.0729	591.7	10.650	20.64	13.20	1.73
	82.91	36.40	73.77	-0.00	0.0636	10.90	479.8	380.38	0.0721	581.3	10.463	20.28	12.93	1.73
	83.92	36.40	73.77	0.00	0.0636	10.91	480.0	380.58	0.0726	582.5	10.484	20.32	12.96	1.73
	84.91	36.40	73.80	0.00	0.0635	10.92	480.4	380.73	0.0738	591.8	10.652	20.64	13.20	1.73
	85.97	36.37	73.80	0.00	0.0637	10.88	478.9	379.56	0.0731	603.7	10.867	21.05	13.51	1.73
	86.92	36.42	73.77	0.00	0.0636	10.87	478.3	379.28	0.0752	614.6	11.064	21.44	13.78	1.73
	87.91	36.37	73.77	0.00	0.0637	10.92	480.3	380.79	0.0740	600.6	10.811	20.95	13.43	1.73
	88.91	36.37	73.77	0.00	0.0637	10.91	480.0	380.56	0.0741	604.5	10.880	21.09	13.52	1.73
	89.91	36.42	73.77	-0.00	0.0636	10.91	479.8	380.48	0.0746	604.3	10.878	21.08	13.52	1.73
	90.91	36.44	73.77	0.00	0.0635	10.88	478.7	379.61	0.0744	615.0	11.071	21.46	13.80	1.73
	91.91	36.43	73.77	0.00	0.0635	10.89	479.1	379.89	0.0742	600.9	10.816	20.97	13.44	1.73
	92.89	36.42	73.77	0.00	0.0637	10.92	480.4	380.88	0.0731	589.8	10.616	20.58	13.15	1.73
	93.91	36.44	73.80	0.00	0.0636	10.88	478.6	379.35	0.0740	608.9	10.961	21.24	13.64	1.73
	94.92	36.43	73.77	-0.00	0.0634	10.86	477.7	378.79	0.0756	618.2	11.127	21.57	13.87	1.73
	95.91	36.49	73.82	0.00	0.0635	10.85	477.6	378.51	0.0746	615.0	11.069	21.45	13.80	1.73
	96.89	36.42	73.77	0.00	0.0634	10.84	477.0	378.23	0.0752	619.8	11.156	21.62	13.91	1.73
	97.92	36.44	73.77	-0.00	0.0632	10.83	476.6	377.92	0.0767	627.3	11.291	21.89	14.10	1.73
	98.91	36.40	73.80	0.00	0.0633	10.84	477.0	378.05	0.0764	630.2	11.343	21.98	14.17	1.73
	99.89	36.36	73.77	0.00	0.0634	10.85	477.3	378.39	0.0755	621.8	11.193	21.69	13.96	1.73
	100.92	36.46	73.77	-0.00	0.0634	10.86	477.8	378.95	0.0756	624.5	11.241	21.79	14.03	1.73
	101.92	36.42	73.80	-0.00	0.0635	10.86	477.9	378.84	0.0757	636.4	11.455	22.20	14.32	1.73
	102.97	36.43	73.80	0.00	0.0634	10.85	477.2	378.27	0.0758	624.4	11.238	21.78	14.03	1.73
	103.89	36.42	73.77	0.00	0.0635	10.87	478.1	379.08	0.0751	624.2	11.235	21.78	14.02	1.73
	104.92	36.46	73.74	-0.00	0.0633	10.79	474.9	376.78	0.0778	653.3	11.760	22.81	14.73	1.73
	105.91	36.45	73.77	0.00	0.0634	10.85	477.3	378.49	0.0757	631.3	11.363	22.03	14.20	1.73
	106.91	36.45	73.80	-0.00	0.0634	10.86	477.6	378.64	0.0767	622.6	11.207	21.72	13.98	1.73
	107.91	36.47	73.80	0.00	0.0634	10.84	477.0	378.17	0.0767	632.8	11.390	22.07	14.24	1.73
	108.91	36.46	73.77	0.00	0.0634	10.86	477.7	378.86	0.0762	624.2	11.236	21.78	14.03	1.73
	109.91	36.45	73.80	0.00	0.0634	10.85	477.6	378.58	0.0766	635.7	11.443	22.17	14.31	1.73
	110.91	36.50	73.77	-0.00	0.0633	10.83	476.3	377.76	0.0771	649.2	11.686	22.66	14.63	1.73
	111.91	36.48	73.80	0.00	0.0633	10.82	476.0	377.40	0.0770	640.1	11.522	22.33	14.41	1.73
