Jul 29 2015 at 10:42:05
Frequency: 1.00Hz.
CO2
Zero:  Value:0.95  Date:18 Mar 2005	 at 07:22:33	
Span:  Value:1.00  Date:18 Mar 2005	 at 07:25:09	
H2O
Zero:  Value:0.71  Date:18 Mar 2005	 at 07:52:31	
Span:  Value:0.99  Date:18 Mar 2005	 at 11:44:01	
	Relative Time	Temperature	Pressure	Aux Input	CO2 Absorptance	CO2 mmol/m3	CO2 mg/m3	CO2 umol/mol	H2O Absorptance	H2O mmol/m3	H2O g/m3	H2O mmol/mol	H2O(°C)	Cooler Voltage
	0.44	29.29	73.41	0.00	0.0636	10.90	479.8	373.53	0.0836	734.7	13.225	25.17	16.19	1.74
	1.44	29.29	73.41	0.00	0.0628	10.76	473.6	368.70	0.0839	722.9	13.012	24.76	15.94	1.74
	2.44	29.29	73.41	0.00	0.0633	10.83	476.7	371.07	0.0819	707.3	12.732	24.23	15.60	1.74
	3.44	29.31	73.35	0.00	0.0637	10.91	480.2	374.14	0.0792	673.6	12.125	23.09	14.84	1.74
	4.44	29.34	73.41	0.00	0.0637	10.93	480.9	374.42	0.0797	676.4	12.175	23.17	14.91	1.74
	5.44	29.34	73.43	0.00	0.0636	10.93	481.0	374.37	0.0798	673.2	12.117	23.06	14.83	1.73
	6.45	29.31	73.38	0.00	0.0635	10.89	479.2	373.19	0.0800	680.9	12.257	23.33	15.01	1.74
	7.44	29.31	73.41	0.00	0.0634	10.86	477.8	372.02	0.0810	688.7	12.397	23.59	15.19	1.74
	8.42	29.32	73.38	0.00	0.0635	10.90	479.5	373.50	0.0800	678.5	12.213	23.25	14.95	1.74
	9.44	29.32	73.41	0.00	0.0636	10.92	480.6	374.20	0.0788	669.2	12.045	22.92	14.74	1.73
	10.52	29.33	73.41	0.00	0.0637	10.93	480.7	374.30	0.0775	656.1	11.810	22.48	14.43	1.73
	11.44	29.33	73.41	0.00	0.0635	10.89	479.4	373.24	0.0777	652.8	11.751	22.36	14.36	1.73
	12.44	29.39	73.41	-0.00	0.0633	10.87	478.1	372.36	0.0792	667.4	12.013	22.87	14.70	1.74
	13.45	29.35	73.41	-0.00	0.0633	10.83	476.3	370.92	0.0788	666.9	12.004	22.85	14.69	1.74
	14.44	29.33	73.41	0.00	0.0631	10.81	475.7	370.37	0.0800	681.3	12.264	23.34	15.02	1.73
	15.45	29.32	73.41	-0.00	0.0624	10.67	469.3	365.39	0.0828	717.0	12.907	24.56	15.81	1.73
	16.52	29.35	73.41	-0.00	0.0627	10.73	472.1	367.58	0.0811	692.3	12.462	23.72	15.27	1.73
	17.44	29.37	73.38	0.00	0.0630	10.82	476.0	370.82	0.0794	661.5	11.907	22.67	14.56	1.73
	18.52	29.35	73.41	-0.00	0.0630	10.77	474.1	369.15	0.0795	675.1	12.152	23.13	14.88	1.73
	19.44	29.35	73.41	0.00	0.0631	10.79	474.8	369.73	0.0793	670.5	12.070	22.97	14.77	1.74
	20.44	29.37	73.41	0.00	0.0628	10.73	472.1	367.62	0.0806	688.2	12.387	23.58	15.18	1.73
	21.44	29.35	73.43	0.00	0.0630	10.77	473.7	368.74	0.0800	679.6	12.232	23.27	14.98	1.73
	22.45	29.37	73.41	0.00	0.0630	10.78	474.1	369.23	0.0799	677.7	12.199	23.22	14.94	1.73
	23.44	29.36	73.41	0.00	0.0630	10.77	474.1	369.15	0.0800	679.1	12.225	23.27	14.97	1.73
	24.47	29.37	73.41	-0.00	0.0629	10.76	473.3	368.53	0.0800	680.7	12.253	23.32	15.01	1.73
	25.45	29.37	73.41	0.00	0.0630	10.78	474.5	369.52	0.0795	673.6	12.124	23.08	14.84	1.73
	26.47	29.37	73.41	-0.00	0.0630	10.80	475.3	370.11	0.0797	672.7	12.109	23.05	14.82	1.73
	27.45	29.39	73.41	-0.00	0.0628	10.79	474.7	369.71	0.0793	670.1	12.061	22.96	14.76	1.73
	28.47	29.39	73.41	-0.00	0.0630	10.78	474.4	369.42	0.0789	664.9	11.968	22.78	14.64	1.73
	29.45	29.39	73.41	-0.00	0.0629	10.77	473.7	368.90	0.0787	664.1	11.953	22.76	14.62	1.73
	30.45	29.39	73.46	0.00	0.0630	10.76	473.3	368.37	0.0784	658.0	11.844	22.53	14.48	1.73
	31.45	29.39	73.41	0.00	0.0631	10.83	476.5	371.05	0.0785	661.6	11.909	22.67	14.57	1.73
	32.47	29.39	73.38	-0.00	0.0631	10.80	475.1	370.11	0.0784	658.4	11.851	22.57	14.49	1.73
	33.45	29.41	73.38	-0.00	0.0632	10.81	475.7	370.61	0.0783	657.4	11.833	22.53	14.47	1.73
	34.47	29.40	73.41	-0.00	0.0631	10.80	475.1	370.04	0.0783	657.4	11.833	22.53	14.47	1.73
	35.45	29.43	73.41	0.00	0.0632	10.80	475.4	370.25	0.0783	656.1	11.810	22.49	14.44	1.73
	36.45	29.41	73.43	0.00	0.0631	10.80	475.4	370.10	0.0783	657.1	11.828	22.51	14.46	1.74
	37.53	29.41	73.38	-0.00	0.0632	10.82	476.2	370.98	0.0783	658.3	11.849	22.56	14.49	1.73
	38.45	29.40	73.41	0.00	0.0631	10.82	476.0	370.74	0.0783	657.8	11.841	22.54	14.48	1.73
	39.45	29.41	73.41	0.00	0.0631	10.81	475.8	370.54	0.0781	656.1	11.811	22.48	14.44	1.73
	40.45	29.41	73.43	-0.00	0.0631	10.80	475.3	370.01	0.0779	652.5	11.745	22.35	14.35	1.73
	41.45	29.40	73.41	0.00	0.0631	10.80	475.3	370.14	0.0778	649.6	11.692	22.26	14.28	1.73
	42.44	29.43	73.41	0.00	0.0632	10.80	475.4	370.27	0.0775	648.2	11.668	22.21	14.25	1.74
	43.47	29.45	73.46	-0.00	0.0632	10.83	476.3	370.74	0.0777	651.6	11.729	22.32	14.33	1.73
	44.44	29.43	73.41	0.00	0.0632	10.83	476.6	371.19	0.0779	652.0	11.737	22.35	14.34	1.73
	45.45	29.40	73.41	0.00	0.0633	10.84	476.9	371.41	0.0779	653.1	11.756	22.38	14.37	1.73
	46.45	29.42	73.41	-0.00	0.0632	10.82	476.2	370.92	0.0776	650.4	11.708	22.29	14.30	1.73
	47.47	29.45	73.41	-0.00	0.0632	10.83	476.5	371.12	0.0778	650.6	11.710	22.30	14.31	1.74
	48.45	29.45	73.38	-0.00	0.0633	10.83	476.7	371.45	0.0780	654.3	11.778	22.43	14.40	1.74
	49.47	29.45	73.41	-0.00	0.0632	10.83	476.6	371.27	0.0779	653.0	11.754	22.38	14.37	1.73
	50.45	29.45	73.38	0.00	0.0632	10.82	476.1	370.95	0.0777	650.9	11.715	22.31	14.32	1.73
	51.45	29.46	73.41	0.00	0.0631	10.81	475.5	370.38	0.0774	646.8	11.642	22.17	14.22	1.73
	52.45	29.46	73.41	0.00	0.0631	10.82	475.9	370.70	0.0776	650.0	11.700	22.28	14.30	1.74
	53.47	29.45	73.38	-0.00	0.0631	10.81	475.8	370.70	0.0775	648.7	11.676	22.24	14.26	1.74
	54.45	29.46	73.41	0.00	0.0630	10.79	474.9	369.90	0.0773	647.0	11.647	22.18	14.23	1.73
	55.47	29.46	73.41	-0.00	0.0631	10.81	475.7	370.58	0.0776	650.0	11.701	22.28	14.30	1.73
	56.53	29.46	73.41	-0.00	0.0631	10.81	475.7	370.52	0.0775	648.4	11.671	22.22	14.26	1.73
	57.45	29.46	73.41	-0.00	0.0631	10.82	476.0	370.77	0.0774	646.5	11.636	22.16	14.21	1.73
	58.45	29.46	73.41	0.00	0.0632	10.82	476.1	370.84	0.0774	646.2	11.632	22.15	14.21	1.74
	59.53	29.50	73.41	0.00	0.0632	10.82	476.0	370.80	0.0775	647.2	11.649	22.18	14.23	1.74
	60.47	29.48	73.41	-0.00	0.0632	10.82	476.0	370.79	0.0776	648.1	11.666	22.22	14.25	1.73
	61.44	29.48	73.38	0.00	0.0631	10.79	474.9	370.10	0.0775	648.3	11.669	22.23	14.26	1.73
	62.47	29.47	73.41	0.00	0.0632	10.81	475.8	370.65	0.0779	652.9	11.752	22.38	14.36	1.73
	63.44	29.50	73.38	0.00	0.0632	10.83	476.4	371.30	0.0780	654.7	11.785	22.45	14.41	1.73
	64.47	29.52	73.43	-0.00	0.0631	10.81	475.6	370.42	0.0777	651.4	11.725	22.32	14.33	1.73
	65.45	29.50	73.41	-0.00	0.0632	10.83	476.4	371.15	0.0783	656.7	11.820	22.51	14.46	1.74
	66.45	29.50	73.43	0.00	0.0632	10.82	476.2	370.90	0.0785	660.5	11.888	22.63	14.54	1.73
	67.45	29.52	73.41	-0.00	0.0631	10.80	475.3	370.32	0.0782	657.5	11.834	22.54	14.48	1.73
	68.47	29.50	73.41	-0.00	0.0631	10.81	475.4	370.39	0.0782	656.5	11.817	22.50	14.45	1.73
	69.45	29.50	73.38	-0.00	0.0631	10.80	475.4	370.50	0.0782	655.9	11.806	22.49	14.44	1.73
	70.45	29.48	73.41	0.00	0.0632	10.82	475.9	370.73	0.0784	659.9	11.878	22.62	14.53	1.74
	71.45	29.50	73.41	0.00	0.0632	10.82	476.1	370.89	0.0788	664.6	11.962	22.78	14.64	1.74
	72.44	29.54	73.43	0.00	0.0631	10.81	475.9	370.64	0.0788	664.4	11.960	22.77	14.64	1.73
	73.45	29.52	73.41	0.00	0.0631	10.81	475.5	370.47	0.0787	662.8	11.931	22.72	14.60	1.73
	74.45	29.55	73.41	0.00	0.0631	10.79	474.9	370.05	0.0793	668.6	12.035	22.92	14.74	1.73
	75.45	29.52	73.41	0.00	0.0631	10.80	475.2	370.20	0.0790	666.8	12.002	22.86	14.69	1.73
	76.44	29.52	73.43	0.00	0.0631	10.80	475.3	370.21	0.0788	663.8	11.949	22.75	14.62	1.74
	77.45	29.53	73.41	0.00	0.0631	10.80	475.2	370.27	0.0792	669.0	12.042	22.93	14.75	1.74
	78.45	29.54	73.43	-0.00	0.0631	10.79	474.9	369.89	0.0790	667.7	12.019	22.88	14.72	1.73
	79.47	29.56	73.41	-0.00	0.0629	10.77	473.9	369.26	0.0792	666.6	11.998	22.85	14.69	1.73
	80.45	29.54	73.41	-0.00	0.0630	10.79	474.9	370.00	0.0797	673.5	12.123	23.09	14.85	1.73
	81.45	29.54	73.41	0.00	0.0629	10.77	473.8	369.20	0.0796	676.4	12.176	23.19	14.92	1.73
	82.45	29.56	73.41	-0.00	0.0629	10.75	472.9	368.51	0.0796	673.2	12.117	23.08	14.84	1.74
	83.47	29.57	73.35	-0.00	0.0629	10.77	473.9	369.55	0.0804	682.3	12.282	23.41	15.05	1.74
	84.45	29.56	73.41	-0.00	0.0629	10.77	474.0	369.36	0.0802	682.5	12.284	23.40	15.06	1.73
	85.47	29.56	73.41	0.00	0.0629	10.76	473.5	368.97	0.0808	689.0	12.402	23.62	15.20	1.73
	86.45	29.56	73.35	-0.00	0.0629	10.77	473.7	369.35	0.0805	685.2	12.334	23.51	15.12	1.73
	87.45	29.56	73.35	0.00	0.0628	10.75	472.9	368.72	0.0806	685.9	12.345	23.53	15.13	1.73
	88.45	29.56	73.38	-0.00	0.0629	10.75	473.2	368.84	0.0806	688.0	12.383	23.59	15.18	1.73
	89.45	29.58	73.43	-0.00	0.0629	10.76	473.4	368.76	0.0804	684.6	12.323	23.47	15.11	1.73
	90.45	29.59	73.43	-0.00	0.0629	10.76	473.6	368.92	0.0809	691.2	12.441	23.69	15.25	1.73
	91.44	29.58	73.38	0.00	0.0628	10.75	473.0	368.75	0.0810	692.0	12.456	23.74	15.27	1.73
	92.45	29.58	73.41	0.00	0.0628	10.73	472.3	368.03	0.0810	688.5	12.393	23.61	15.19	1.73
	93.45	29.56	73.41	-0.00	0.0629	10.75	473.0	368.60	0.0810	692.1	12.458	23.73	15.27	1.73
	94.45	29.58	73.41	-0.00	0.0628	10.75	472.8	368.46	0.0811	691.8	12.453	23.72	15.27	1.74
	95.44	29.58	73.41	0.00	0.0628	10.75	473.2	368.73	0.0812	697.0	12.546	23.90	15.38	1.73
	96.47	29.61	73.41	-0.00	0.0628	10.74	472.7	368.36	0.0812	694.8	12.507	23.83	15.34	1.73
	97.44	29.60	73.41	0.00	0.0628	10.74	472.7	368.35	0.0814	698.2	12.567	23.94	15.41	1.73
	98.45	29.59	73.41	0.00	0.0628	10.74	472.6	368.28	0.0815	696.5	12.537	23.88	15.37	1.73
	99.44	29.62	73.41	0.00	0.0628	10.74	472.5	368.29	0.0817	700.2	12.604	24.01	15.46	1.73
	100.45	29.60	73.41	0.00	0.0629	10.75	473.0	368.59	0.0821	707.1	12.728	24.25	15.61	1.74
	101.44	29.62	73.38	0.00	0.0628	10.73	472.3	368.25	0.0816	701.5	12.628	24.07	15.49	1.73
	102.47	29.62	73.38	-0.00	0.0627	10.72	471.7	367.73	0.0818	700.0	12.600	24.01	15.45	1.73
	103.45	29.62	73.41	-0.00	0.0627	10.72	471.6	367.58	0.0816	699.0	12.582	23.97	15.43	1.73
	104.47	29.62	73.41	-0.00	0.0628	10.73	472.1	367.96	0.0823	709.0	12.763	24.31	15.65	1.73
	105.45	29.62	73.41	-0.00	0.0628	10.74	472.7	368.41	0.0826	709.9	12.779	24.35	15.67	1.74
	106.44	29.64	73.41	0.00	0.0628	10.74	472.4	368.17	0.0829	717.6	12.917	24.61	15.84	1.74
	107.45	29.62	73.41	0.00	0.0627	10.73	471.9	367.81	0.0830	718.9	12.940	24.65	15.87	1.73
	108.44	29.63	73.41	0.00	0.0628	10.73	472.0	367.91	0.0829	717.5	12.915	24.61	15.84	1.73
	109.45	29.62	73.38	-0.00	0.0627	10.71	471.2	367.40	0.0824	710.9	12.796	24.39	15.69	1.73
	110.44	29.64	73.41	0.00	0.0628	10.73	472.2	368.06	0.0827	715.4	12.877	24.53	15.79	1.74
	111.45	29.64	73.41	-0.00	0.0626	10.71	471.1	367.15	0.0827	713.3	12.839	24.46	15.75	1.74
	112.44	29.66	73.38	0.00	0.0626	10.71	471.1	367.31	0.0827	712.5	12.825	24.45	15.73	1.74
	113.45	29.61	73.41	0.00	0.0627	10.71	471.1	367.19	0.0827	715.1	12.872	24.52	15.79	1.74
	114.44	29.63	73.41	0.00	0.0626	10.70	470.8	366.90	0.0829	715.0	12.871	24.52	15.79	1.73
	115.53	29.66	73.38	-0.00	0.0626	10.70	470.7	367.03	0.0828	716.2	12.892	24.57	15.81	1.73
	116.45	29.66	73.43	0.00	0.0626	10.69	470.2	366.37	0.0825	712.4	12.823	24.42	15.73	1.74
	117.47	29.66	73.38	-0.00	0.0626	10.70	470.8	367.09	0.0830	716.9	12.904	24.59	15.83	1.74
	118.45	29.66	73.38	-0.00	0.0626	10.69	470.4	366.78	0.0828	715.5	12.880	24.55	15.80	1.74
	119.47	29.68	73.41	-0.00	0.0626	10.70	470.8	366.97	0.0831	720.1	12.962	24.70	15.90	1.74
	120.45	29.65	73.38	-0.00	0.0625	10.69	470.3	366.68	0.0829	717.7	12.919	24.62	15.85	1.74
	121.47	29.66	73.41	-0.00	0.0626	10.68	470.1	366.39	0.0836	723.7	13.026	24.82	15.98	1.74
	122.44	29.68	73.41	0.00	0.0626	10.69	470.3	366.59	0.0835	725.4	13.058	24.88	16.01	1.74
	123.44	29.68	73.41	0.00	0.0626	10.69	470.5	366.77	0.0835	725.9	13.067	24.90	16.03	1.74
	124.44	29.68	73.38	0.00	0.0626	10.69	470.2	366.66	0.0838	727.9	13.102	24.97	16.07	1.74
	125.44	29.68	73.41	0.00	0.0625	10.68	470.1	366.43	0.0840	732.0	13.176	25.11	16.16	1.74
	126.45	29.70	73.41	0.00	0.0625	10.67	469.4	365.93	0.0837	730.0	13.139	25.04	16.11	1.73
	127.44	29.70	73.41	0.00	0.0624	10.67	469.3	365.87	0.0837	727.5	13.095	24.95	16.06	1.73
	128.45	29.70	73.41	0.00	0.0625	10.67	469.5	365.97	0.0838	727.5	13.095	24.95	16.06	1.74
	129.45	29.70	73.43	-0.00	0.0625	10.67	469.5	365.86	0.0841	732.2	13.180	25.11	16.16	1.74
	130.45	29.72	73.38	-0.00	0.0624	10.65	468.8	365.58	0.0840	732.2	13.179	25.12	16.16	1.73
	131.45	29.68	73.41	-0.00	0.0624	10.66	468.9	365.52	0.0840	729.7	13.135	25.03	16.11	1.74
	132.45	29.68	73.41	-0.00	0.0625	10.67	469.5	365.99	0.0847	737.3	13.272	25.29	16.27	1.74
	133.45	29.70	73.41	-0.00	0.0623	10.64	468.0	364.80	0.0852	746.7	13.440	25.61	16.47	1.74
	134.53	29.72	73.41	-0.00	0.0624	10.64	468.3	365.10	0.0852	747.5	13.455	25.64	16.49	1.74
	135.45	29.72	73.41	-0.00	0.0623	10.64	468.2	365.01	0.0855	747.9	13.463	25.66	16.50	1.74
	136.47	29.72	73.43	-0.00	0.0624	10.64	468.3	365.00	0.0854	750.7	13.512	25.74	16.55	1.74
	137.45	29.72	73.41	-0.00	0.0623	10.64	468.0	364.86	0.0860	756.5	13.617	25.95	16.67	1.74
	138.44	29.69	73.41	0.00	0.0623	10.62	467.4	364.37	0.0857	751.2	13.522	25.77	16.56	1.74
	139.44	29.73	73.41	0.00	0.0623	10.63	467.5	364.52	0.0855	750.8	13.515	25.76	16.56	1.74
	140.44	29.73	73.38	0.00	0.0623	10.62	467.4	364.50	0.0861	761.6	13.709	26.14	16.78	1.74
	141.44	29.75	73.38	0.00	0.0623	10.63	467.6	364.73	0.0860	759.6	13.674	26.07	16.74	1.74
	142.44	29.75	73.41	0.00	0.0623	10.63	467.6	364.59	0.0858	756.9	13.624	25.97	16.69	1.74
	143.45	29.73	73.41	0.00	0.0623	10.62	467.3	364.30	0.0855	751.9	13.534	25.79	16.58	1.74
	144.44	29.73	73.41	0.00	0.0622	10.62	467.2	364.24	0.0856	750.6	13.511	25.75	16.55	1.73
	145.44	29.77	73.41	0.00	0.0623	10.62	467.3	364.40	0.0860	759.0	13.662	26.04	16.73	1.74
	146.45	29.73	73.41	-0.00	0.0622	10.60	466.5	363.72	0.0863	762.6	13.726	26.16	16.80	1.74
	147.45	29.75	73.41	-0.00	0.0622	10.61	467.0	364.10	0.0861	762.6	13.726	26.16	16.80	1.74
	148.45	29.75	73.41	-0.00	0.0622	10.61	466.8	363.96	0.0860	757.2	13.630	25.98	16.69	1.74
