Jul 29 2015 at 13:36:44
Frequency: 1.00Hz.
CO2
Zero:  Value:0.95  Date:18 Mar 2005	 at 07:22:33	
Span:  Value:1.00  Date:18 Mar 2005	 at 07:25:09	
H2O
Zero:  Value:0.71  Date:18 Mar 2005	 at 07:52:31	
Span:  Value:0.99  Date:18 Mar 2005	 at 11:44:01	
	Relative Time	Temperature	Pressure	Aux Input	CO2 Absorptance	CO2 mmol/m3	CO2 mg/m3	CO2 umol/mol	H2O Absorptance	H2O mmol/m3	H2O g/m3	H2O mmol/mol	H2O(°C)	Cooler Voltage
	0.48	36.39	73.87	-0.00	0.0606	10.26	451.7	357.59	0.0978	916.1	16.490	31.91	20.08	1.70
	1.47	36.39	73.87	0.00	0.0606	10.22	449.8	356.15	0.0975	918.0	16.524	31.98	20.11	1.70
	2.47	36.41	73.85	0.00	0.0638	11.55	508.1	402.45	0.0828	725.0	13.050	25.27	16.35	1.70
	3.47	36.36	73.85	0.00	0.0611	10.44	459.2	363.69	0.0959	883.1	15.896	30.77	19.48	1.70
	4.47	36.41	73.85	0.00	0.0613	10.36	456.0	361.15	0.0935	869.5	15.651	30.30	19.24	1.70
	5.47	36.41	73.85	0.00	0.0649	11.00	484.0	383.33	0.0775	633.4	11.401	22.07	14.25	1.70
	6.49	36.43	73.85	0.00	0.0659	11.26	495.5	392.49	0.0642	529.3	9.527	18.45	11.50	1.70
	7.47	36.40	73.87	0.00	0.0640	11.48	505.3	400.06	0.0614	503.6	9.065	17.54	10.75	1.70
	8.48	36.43	73.85	-0.00	0.0617	11.42	502.5	398.06	0.0820	665.1	11.971	23.18	15.00	1.70
	9.47	36.40	73.85	0.00	0.0624	10.61	466.8	369.72	0.0832	723.1	13.016	25.20	16.31	1.70
	10.48	36.43	73.87	-0.00	0.0621	10.61	466.8	369.60	0.0839	722.3	13.001	25.16	16.29	1.70
	11.48	36.43	73.85	-0.00	0.0625	10.66	469.0	371.53	0.0819	704.3	12.678	24.55	15.90	1.70
	12.47	36.37	73.85	0.00	0.0624	10.63	467.7	370.42	0.0828	711.8	12.813	24.81	16.06	1.70
	13.48	36.41	73.87	-0.00	0.0624	10.65	468.5	370.94	0.0827	709.0	12.763	24.70	16.00	1.70
	14.48	36.43	73.87	-0.00	0.0626	10.68	469.9	372.08	0.0819	702.6	12.647	24.48	15.86	1.70
	15.48	36.40	73.87	-0.00	0.0624	10.65	468.6	371.03	0.0827	712.6	12.827	24.83	16.08	1.70
	16.47	36.36	73.87	0.00	0.0624	10.64	468.2	370.67	0.0829	711.4	12.804	24.78	16.05	1.70
	17.47	36.36	73.87	0.00	0.0625	10.64	468.3	370.75	0.0833	717.2	12.909	24.98	16.18	1.70
	18.47	36.40	73.87	0.00	0.0626	10.66	469.2	371.50	0.0832	715.8	12.885	24.94	16.15	1.70
	19.55	36.48	73.90	-0.00	0.0624	10.65	468.6	371.00	0.0836	719.9	12.958	25.08	16.24	1.70
	20.48	36.45	73.87	-0.00	0.0626	10.64	468.3	370.88	0.0835	720.3	12.966	25.10	16.25	1.70
	21.48	36.41	73.85	-0.00	0.0624	10.66	469.0	371.48	0.0854	740.3	13.325	25.80	16.68	1.70
	22.47	36.41	73.85	0.00	0.0627	10.69	470.4	372.59	0.0841	730.2	13.144	25.45	16.46	1.70
	23.47	36.42	73.85	-0.00	0.0628	10.71	471.4	373.41	0.0845	733.0	13.195	25.55	16.52	1.70
	24.47	36.42	73.85	0.00	0.0627	10.70	470.7	372.83	0.0853	741.3	13.343	25.83	16.70	1.70
	25.47	36.41	73.87	0.00	0.0625	10.66	469.2	371.52	0.0860	757.6	13.637	26.39	17.04	1.70
	26.48	36.42	73.85	-0.00	0.0624	10.63	467.7	370.45	0.0858	747.7	13.459	26.06	16.84	1.70
	27.45	36.45	73.87	0.00	0.0624	10.64	468.3	370.88	0.0870	757.5	13.634	26.39	17.04	1.70
	28.47	36.41	73.87	0.00	0.0625	10.65	468.7	371.12	0.0869	767.9	13.822	26.75	17.26	1.70
	29.48	36.42	73.87	-0.00	0.0624	10.65	468.8	371.22	0.0864	758.5	13.652	26.42	17.06	1.70
	30.47	36.47	73.85	0.00	0.0624	10.63	467.7	370.50	0.0870	758.9	13.661	26.46	17.07	1.70
	31.48	36.42	73.87	-0.00	0.0624	10.63	467.9	370.49	0.0873	771.1	13.879	26.86	17.32	1.71
	32.48	36.42	73.85	-0.00	0.0623	10.61	467.0	369.88	0.0873	774.0	13.932	26.98	17.38	1.70
	33.47	36.50	73.85	0.00	0.0622	10.61	466.7	369.79	0.0877	780.2	14.043	27.20	17.51	1.70
	34.45	36.43	73.87	0.00	0.0622	10.59	466.0	368.97	0.0881	783.6	14.106	27.30	17.58	1.70
	35.47	36.47	73.87	0.00	0.0622	10.59	465.9	368.94	0.0884	786.4	14.155	27.40	17.64	1.70
	36.47	36.47	73.85	0.00	0.0622	10.59	465.8	369.01	0.0889	787.7	14.179	27.46	17.66	1.70
	37.47	36.44	73.85	-0.00	0.0622	10.59	465.9	369.04	0.0883	785.4	14.138	27.38	17.62	1.71
	38.47	36.45	73.87	0.00	0.0622	10.58	465.6	368.74	0.0883	783.7	14.106	27.31	17.58	1.71
	39.47	36.45	73.85	0.00	0.0622	10.59	465.9	369.08	0.0891	795.1	14.312	27.71	17.81	1.70
	40.47	36.46	73.87	-0.00	0.0622	10.59	466.0	369.07	0.0895	802.6	14.447	27.97	17.96	1.70
	41.48	36.47	73.85	-0.00	0.0621	10.57	465.1	368.50	0.0888	791.6	14.249	27.59	17.74	1.70
	42.47	36.52	73.87	0.00	0.0621	10.58	465.4	368.63	0.0888	792.7	14.269	27.63	17.77	1.71
	43.48	36.50	73.87	-0.00	0.0621	10.56	464.8	368.16	0.0883	788.1	14.186	27.46	17.67	1.71
	44.47	36.50	73.85	-0.00	0.0621	10.56	464.5	368.02	0.0894	797.2	14.350	27.79	17.85	1.71
	45.48	36.46	73.90	-0.00	0.0620	10.53	463.5	366.93	0.0893	799.5	14.392	27.85	17.90	1.70
	46.47	36.46	73.87	0.00	0.0620	10.55	464.2	367.64	0.0898	804.3	14.477	28.03	17.99	1.70
	47.47	36.50	73.82	0.00	0.0620	10.56	464.4	368.09	0.0898	804.0	14.471	28.04	17.99	1.70
	48.47	36.49	73.87	0.00	0.0619	10.54	463.6	367.19	0.0907	820.0	14.760	28.58	18.30	1.71
	49.47	36.50	73.87	0.00	0.0620	10.55	464.2	367.66	0.0900	812.2	14.619	28.30	18.15	1.71
	50.48	36.46	73.87	-0.00	0.0622	10.56	464.7	368.04	0.0885	801.1	14.420	27.91	17.93	1.71
	51.47	36.52	73.87	-0.00	0.0621	10.58	465.3	368.58	0.0898	807.9	14.543	28.16	18.07	1.70
	52.48	36.50	73.87	-0.00	0.0621	10.58	465.4	368.63	0.0890	795.9	14.326	27.74	17.83	1.71
	53.48	36.52	73.85	-0.00	0.0620	10.57	464.9	368.35	0.0895	802.5	14.444	27.98	17.96	1.70
	54.53	36.46	73.85	0.00	0.0620	10.56	464.4	367.93	0.0897	802.4	14.444	27.97	17.96	1.71
	55.45	36.50	73.85	0.00	0.0620	10.54	463.8	367.42	0.0903	812.5	14.625	28.32	18.16	1.71
	56.47	36.46	73.85	0.00	0.0619	10.53	463.4	367.10	0.0909	821.4	14.785	28.63	18.33	1.71
	57.47	36.52	73.87	0.00	0.0619	10.53	463.2	366.89	0.0907	819.9	14.758	28.57	18.30	1.71
	58.47	36.52	73.85	0.00	0.0620	10.55	464.4	367.95	0.0913	826.6	14.879	28.82	18.43	1.71
	59.47	36.48	73.87	0.00	0.0619	10.53	463.3	366.88	0.0913	827.5	14.895	28.83	18.45	1.71
	60.47	36.48	73.87	0.00	0.0617	10.49	461.5	365.47	0.0916	830.6	14.950	28.94	18.51	1.71
	61.45	36.49	73.82	0.00	0.0617	10.49	461.7	365.89	0.0912	829.0	14.923	28.91	18.48	1.71
	62.48	36.52	73.87	-0.00	0.0617	10.49	461.6	365.60	0.0914	829.3	14.927	28.90	18.48	1.71
	63.47	36.46	73.85	0.00	0.0617	10.48	461.3	365.46	0.0919	830.5	14.949	28.95	18.50	1.71
	64.47	36.52	73.90	-0.00	0.0617	10.48	461.2	365.16	0.0920	836.6	15.058	29.15	18.62	1.71
	65.47	36.51	73.87	-0.00	0.0618	10.49	461.6	365.65	0.0926	840.6	15.132	29.30	18.70	1.71
	66.47	36.51	73.87	-0.00	0.0618	10.51	462.4	366.21	0.0916	838.5	15.093	29.22	18.66	1.71
	67.48	36.49	73.90	0.00	0.0617	10.49	461.6	365.44	0.0915	830.2	14.944	28.92	18.50	1.71
	68.47	36.48	73.87	0.00	0.0617	10.49	461.5	365.45	0.0920	838.6	15.095	29.22	18.66	1.71
	69.48	36.49	73.85	0.00	0.0618	10.51	462.6	366.49	0.0921	838.9	15.100	29.24	18.67	1.71
	70.48	36.49	73.85	0.00	0.0617	10.48	461.1	365.35	0.0928	848.4	15.271	29.57	18.85	1.71
	71.48	36.49	73.87	0.00	0.0617	10.47	460.8	364.95	0.0924	844.2	15.196	29.42	18.77	1.71
	72.47	36.49	73.87	0.00	0.0617	10.48	461.2	365.25	0.0920	839.0	15.102	29.24	18.67	1.71
	73.48	36.49	73.87	0.00	0.0617	10.50	461.9	365.81	0.0925	840.4	15.127	29.29	18.69	1.71
	74.48	36.50	73.85	0.00	0.0618	10.50	462.1	366.09	0.0922	842.6	15.167	29.37	18.74	1.71
	75.47	36.49	73.85	0.00	0.0617	10.52	462.7	366.57	0.0914	832.9	14.992	29.03	18.55	1.71
	76.50	36.52	73.90	-0.00	0.0620	10.55	464.1	367.43	0.0926	839.7	15.114	29.25	18.68	1.71
	77.48	36.51	73.85	0.00	0.0620	10.55	464.2	367.82	0.0926	841.3	15.143	29.33	18.71	1.71
	78.48	36.51	73.88	-0.00	0.0620	10.53	463.5	367.11	0.0922	842.8	15.170	29.37	18.74	1.71
	79.48	36.54	73.90	-0.00	0.0620	10.53	463.3	366.86	0.0931	851.4	15.325	29.66	18.90	1.71
	80.50	36.53	73.87	-0.00	0.0620	10.56	464.7	368.09	0.0924	843.4	15.182	29.40	18.75	1.71
	81.48	36.51	73.85	-0.00	0.0621	10.55	464.2	367.76	0.0919	837.0	15.065	29.18	18.63	1.71
	82.47	36.54	73.87	0.00	0.0623	10.59	466.1	369.25	0.0922	838.9	15.100	29.24	18.67	1.71
	83.48	36.51	73.87	0.00	0.0621	10.56	464.7	368.08	0.0921	835.3	15.036	29.11	18.60	1.71
	84.48	36.53	73.87	0.00	0.0622	10.60	466.3	369.35	0.0928	849.8	15.296	29.62	18.87	1.71
	85.48	36.48	73.87	0.00	0.0623	10.60	466.5	369.44	0.0928	852.4	15.343	29.70	18.92	1.71
	86.47	36.54	73.82	0.00	0.0621	10.58	465.4	368.93	0.0939	865.9	15.586	30.20	19.18	1.71
	87.48	36.53	73.85	0.00	0.0623	10.61	467.0	370.02	0.0935	861.0	15.498	30.02	19.08	1.71
	88.48	36.56	73.87	-0.00	0.0622	10.59	466.0	369.14	0.0934	855.5	15.398	29.82	18.98	1.71
	89.47	36.52	73.85	0.00	0.0622	10.59	465.8	369.04	0.0941	866.4	15.596	30.21	19.18	1.71
	90.50	36.52	73.87	-0.00	0.0622	10.58	465.5	368.70	0.0939	865.3	15.576	30.16	19.16	1.71
	91.48	36.56	73.87	0.00	0.0622	10.57	465.2	368.52	0.0943	871.8	15.692	30.39	19.29	1.71
	92.48	36.51	73.85	-0.00	0.0621	10.57	465.2	368.58	0.0944	869.7	15.654	30.32	19.24	1.71
	93.48	36.53	73.87	-0.00	0.0621	10.58	465.3	368.58	0.0947	876.3	15.774	30.54	19.37	1.71
	94.50	36.56	73.82	-0.00	0.0620	10.55	464.3	368.06	0.0941	870.7	15.672	30.37	19.26	1.71
	95.55	36.49	73.85	0.00	0.0620	10.54	463.9	367.51	0.0953	886.2	15.951	30.89	19.54	1.71
	96.48	36.53	73.82	-0.00	0.0618	10.50	462.1	366.27	0.0957	887.3	15.971	30.94	19.57	1.71
	97.48	36.60	73.85	0.00	0.0616	10.48	461.0	365.37	0.0959	892.8	16.070	31.13	19.67	1.71
	98.56	36.56	73.85	-0.00	0.0617	10.48	461.2	365.51	0.0963	898.3	16.169	31.32	19.77	1.71
	99.47	36.59	73.85	0.00	0.0617	10.49	461.5	365.78	0.0963	896.4	16.135	31.26	19.73	1.71
	100.48	36.56	73.85	-0.00	0.0618	10.50	462.0	366.14	0.0957	892.8	16.071	31.13	19.67	1.71
	101.48	36.56	73.85	0.00	0.0618	10.50	462.1	366.21	0.0954	885.5	15.939	30.87	19.54	1.71
	102.55	36.59	73.87	0.00	0.0619	10.52	463.0	366.81	0.0966	897.0	16.146	31.27	19.75	1.71
	103.48	36.60	73.82	-0.00	0.0618	10.51	462.3	366.49	0.0958	891.7	16.051	31.11	19.65	1.71
	104.50	36.59	73.85	-0.00	0.0617	10.50	461.8	365.99	0.0960	892.7	16.069	31.13	19.67	1.71
	105.48	36.53	73.85	0.00	0.0617	10.48	461.1	365.35	0.0965	898.2	16.168	31.32	19.76	1.71
	106.47	36.56	73.82	0.00	0.0617	10.48	461.1	365.54	0.0966	905.4	16.296	31.58	19.89	1.71
	107.47	36.55	73.85	0.00	0.0615	10.43	458.9	363.64	0.0968	906.8	16.323	31.62	19.92	1.71
	108.50	36.55	73.85	-0.00	0.0614	10.42	458.5	363.36	0.0972	912.2	16.419	31.80	20.01	1.71
	109.55	36.53	73.85	0.00	0.0615	10.42	458.5	363.34	0.0969	907.2	16.330	31.63	19.93	1.71
	110.47	36.59	73.85	0.00	0.0614	10.42	458.5	363.33	0.0976	916.6	16.499	31.96	20.09	1.71
	111.50	36.55	73.85	-0.00	0.0617	10.46	460.3	364.78	0.0975	917.3	16.511	31.98	20.10	1.71
	112.48	36.59	73.85	0.00	0.0615	10.45	459.9	364.49	0.0969	907.7	16.338	31.65	19.94	1.72
	113.47	36.58	73.87	0.00	0.0615	10.44	459.4	363.98	0.0973	912.5	16.425	31.81	20.02	1.72
	114.48	36.55	73.87	-0.00	0.0614	10.42	458.6	363.29	0.0972	913.3	16.440	31.83	20.04	1.71
	115.50	36.54	73.87	-0.00	0.0615	10.44	459.5	364.00	0.0977	915.1	16.473	31.90	20.07	1.71
	116.48	36.59	73.87	-0.00	0.0615	10.44	459.3	363.88	0.0978	920.8	16.574	32.10	20.17	1.71
	117.48	36.53	73.87	-0.00	0.0616	10.46	460.1	364.44	0.0988	938.0	16.884	32.69	20.46	1.71
	118.50	36.58	73.85	0.00	0.0614	10.41	458.1	363.06	0.0977	918.2	16.527	32.02	20.12	1.72
	119.48	36.58	73.85	0.00	0.0614	10.42	458.5	363.33	0.0983	927.1	16.688	32.33	20.28	1.72
	120.47	36.55	73.85	0.00	0.0615	10.45	459.9	364.45	0.0988	938.2	16.888	32.71	20.47	1.71
	121.47	36.60	73.85	0.00	0.0615	10.41	458.2	363.16	0.0987	933.4	16.801	32.55	20.39	1.71
	122.56	36.61	73.87	-0.00	0.0615	10.45	459.7	364.24	0.0990	934.6	16.824	32.58	20.41	1.71
	123.47	36.58	73.85	0.00	0.0613	10.40	457.8	362.78	0.0985	928.3	16.709	32.37	20.30	1.71
	124.47	36.58	73.85	0.00	0.0614	10.39	457.1	362.27	0.0976	925.6	16.661	32.28	20.25	1.72
	125.48	36.62	73.82	0.00	0.0613	10.33	454.4	360.30	0.0983	916.3	16.493	31.96	20.09	1.72
	126.55	36.57	73.82	0.00	0.0617	10.49	461.4	365.79	0.0978	920.4	16.568	32.11	20.16	1.71
	127.47	36.59	73.85	0.00	0.0621	10.63	467.9	370.85	0.0962	912.0	16.415	31.80	20.01	1.71
	128.47	36.62	73.85	0.00	0.0614	10.63	467.8	370.80	0.0985	928.2	16.708	32.37	20.30	1.71
	129.49	36.60	73.85	0.00	0.0617	10.48	461.0	365.39	0.0980	911.5	16.408	31.79	20.01	1.72
	130.47	36.60	73.87	0.00	0.0618	10.51	462.5	366.40	0.0976	919.7	16.555	32.06	20.15	1.72
