Jul 29 2015 at 10:29:26
Frequency: 1.00Hz.
CO2
Zero:  Value:0.95  Date:18 Mar 2005	 at 07:22:33	
Span:  Value:1.00  Date:18 Mar 2005	 at 07:25:09	
H2O
Zero:  Value:0.71  Date:18 Mar 2005	 at 07:52:31	
Span:  Value:0.99  Date:18 Mar 2005	 at 11:44:01	
	Relative Time	Temperature	Pressure	Aux Input	CO2 Absorptance	CO2 mmol/m3	CO2 mg/m3	CO2 umol/mol	H2O Absorptance	H2O mmol/m3	H2O g/m3	H2O mmol/mol	H2O(°C)	Cooler Voltage
	0.94	27.37	73.38	-0.00	0.0622	10.62	467.4	361.66	0.0922	842.0	15.156	28.67	18.25	1.71
	1.94	27.37	73.41	-0.00	0.0622	10.60	466.4	360.82	0.0923	844.9	15.207	28.76	18.30	1.71
	2.92	27.40	73.38	0.00	0.0621	10.59	465.9	360.59	0.0921	840.9	15.136	28.63	18.23	1.71
	3.92	27.37	73.41	0.00	0.0620	10.59	465.8	360.33	0.0917	837.9	15.083	28.52	18.17	1.71
	4.92	27.39	73.41	-0.00	0.0622	10.62	467.2	361.42	0.0919	836.6	15.059	28.48	18.15	1.71
	5.94	27.40	73.41	0.00	0.0623	10.59	465.8	360.38	0.0916	838.8	15.098	28.55	18.19	1.71
	6.92	27.41	73.41	0.00	0.0638	10.80	475.4	367.78	0.0856	791.3	14.243	26.94	17.26	1.71
	7.92	27.39	73.41	0.00	0.0637	10.96	482.1	372.98	0.0858	753.4	13.562	25.65	16.49	1.71
	8.92	27.36	73.41	0.00	0.0637	10.96	482.4	373.16	0.0862	757.1	13.628	25.77	16.56	1.71
	9.92	27.40	73.43	0.00	0.0636	10.96	482.1	372.88	0.0866	757.0	13.626	25.76	16.57	1.71
	10.92	27.37	73.41	0.00	0.0635	10.91	479.9	371.20	0.0868	769.1	13.843	26.18	16.81	1.71
	11.92	27.39	73.41	0.00	0.0637	10.93	480.7	371.91	0.0865	766.4	13.795	26.09	16.76	1.71
	12.92	27.40	73.41	0.00	0.0641	11.02	484.7	375.03	0.0849	738.0	13.284	25.12	16.17	1.71
	13.92	27.39	73.41	0.00	0.0638	10.97	482.8	373.52	0.0850	742.8	13.370	25.28	16.27	1.71
	14.92	27.40	73.40	0.00	0.0640	11.00	483.9	374.34	0.0856	746.5	13.436	25.41	16.34	1.71
	15.94	27.40	73.41	-0.00	0.0638	10.96	482.5	373.26	0.0855	749.4	13.490	25.51	16.41	1.71
	16.92	27.43	73.41	0.00	0.0639	10.99	483.4	374.05	0.0858	755.6	13.601	25.72	16.54	1.71
	17.91	27.40	73.43	0.00	0.0638	10.97	482.6	373.22	0.0863	759.9	13.678	25.86	16.62	1.71
	18.92	27.40	73.38	0.00	0.0638	10.95	482.0	373.02	0.0862	757.4	13.633	25.79	16.57	1.71
	19.92	27.42	73.41	-0.00	0.0638	10.96	482.3	373.13	0.0853	749.5	13.491	25.52	16.41	1.71
	20.92	27.40	73.41	0.00	0.0639	11.00	484.1	374.55	0.0841	737.9	13.283	25.12	16.16	1.71
	21.92	27.43	73.41	-0.00	0.0641	11.00	484.1	374.57	0.0840	731.6	13.168	24.91	16.03	1.71
	22.94	27.42	73.41	-0.00	0.0641	11.03	485.1	375.34	0.0838	729.4	13.130	24.83	15.98	1.71
	23.92	27.42	73.43	0.00	0.0642	11.03	485.2	375.27	0.0836	727.6	13.096	24.76	15.94	1.71
	24.92	27.42	73.41	0.00	0.0641	11.05	486.0	376.05	0.0836	726.8	13.083	24.74	15.93	1.71
	25.92	27.42	73.41	0.00	0.0642	11.04	485.6	375.74	0.0835	726.2	13.072	24.72	15.92	1.71
	26.92	27.42	73.41	0.00	0.0644	11.03	485.4	375.60	0.0834	723.8	13.029	24.64	15.86	1.71
	27.92	27.42	73.41	0.00	0.0644	11.09	487.8	377.39	0.0836	724.9	13.048	24.68	15.89	1.71
	28.94	27.42	73.38	-0.00	0.0643	11.07	487.2	377.10	0.0835	725.3	13.055	24.70	15.89	1.71
	29.92	27.45	73.41	0.00	0.0642	11.04	486.0	376.01	0.0835	722.8	13.011	24.61	15.84	1.71
	30.92	27.42	73.41	0.00	0.0642	11.04	485.8	375.83	0.0836	725.3	13.055	24.69	15.89	1.71
	31.94	27.42	73.41	-0.00	0.0643	11.07	487.0	376.82	0.0832	721.3	12.984	24.56	15.81	1.71
	32.91	27.42	73.38	0.00	0.0643	11.08	487.4	377.24	0.0833	722.8	13.011	24.62	15.84	1.71
	33.94	27.42	73.41	-0.00	0.0642	11.03	485.5	375.66	0.0834	722.8	13.011	24.61	15.84	1.71
	34.91	27.44	73.41	0.00	0.0642	11.03	485.5	375.63	0.0834	723.9	13.030	24.64	15.86	1.71
	35.94	27.44	73.41	-0.00	0.0642	11.05	486.4	376.35	0.0835	723.5	13.023	24.63	15.86	1.71
	37.00	27.44	73.41	0.00	0.0641	11.02	484.9	375.22	0.0835	723.9	13.029	24.64	15.86	1.71
	37.94	27.44	73.41	-0.00	0.0642	11.05	486.0	376.06	0.0836	726.9	13.085	24.75	15.93	1.71
	38.92	27.44	73.41	0.00	0.0641	11.02	485.1	375.33	0.0839	728.5	13.113	24.80	15.96	1.71
	39.92	27.44	73.41	0.00	0.0643	11.04	485.9	375.96	0.0839	729.8	13.136	24.85	15.99	1.71
	40.92	27.46	73.41	-0.00	0.0642	11.04	485.6	375.78	0.0839	729.7	13.135	24.85	15.99	1.71
	41.94	27.47	73.38	-0.00	0.0642	11.03	485.3	375.68	0.0839	728.7	13.116	24.82	15.97	1.71
	42.92	27.46	73.38	-0.00	0.0642	11.05	486.1	376.29	0.0840	730.9	13.156	24.89	16.02	1.71
	43.92	27.46	73.41	0.00	0.0642	11.07	487.1	376.89	0.0841	733.4	13.201	24.97	16.07	1.71
	44.92	27.42	73.43	0.00	0.0642	11.02	484.9	375.01	0.0842	734.4	13.218	24.99	16.09	1.71
	45.94	27.46	73.41	0.00	0.0641	11.01	484.4	374.79	0.0843	734.7	13.225	25.01	16.10	1.71
	47.00	27.46	73.41	-0.00	0.0641	11.01	484.5	374.92	0.0843	734.1	13.213	24.99	16.09	1.71
	47.91	27.47	73.41	0.00	0.0642	11.04	485.9	375.97	0.0843	735.2	13.234	25.03	16.11	1.71
	48.92	27.47	73.38	0.00	0.0641	11.03	485.4	375.72	0.0845	737.4	13.274	25.12	16.16	1.71
	49.92	27.46	73.41	-0.00	0.0639	11.00	484.0	374.53	0.0846	739.2	13.306	25.17	16.19	1.71
	50.94	27.48	73.41	-0.00	0.0640	11.03	485.3	375.57	0.0843	737.6	13.277	25.11	16.16	1.71
	51.92	27.48	73.38	-0.00	0.0640	11.02	484.8	375.32	0.0846	738.8	13.299	25.17	16.19	1.71
	52.94	27.48	73.41	-0.00	0.0641	11.01	484.4	374.87	0.0847	741.2	13.341	25.24	16.24	1.71
	53.91	27.46	73.38	0.00	0.0641	11.01	484.4	374.99	0.0848	741.4	13.346	25.25	16.24	1.71
	54.92	27.46	73.41	0.00	0.0640	10.98	483.0	373.72	0.0848	742.3	13.362	25.27	16.26	1.71
	55.92	27.47	73.41	0.00	0.0640	11.00	483.9	374.45	0.0849	742.9	13.373	25.30	16.27	1.71
	56.92	27.49	73.41	0.00	0.0640	10.99	483.4	374.09	0.0848	742.4	13.364	25.28	16.26	1.71
	57.92	27.52	73.41	0.00	0.0641	11.01	484.4	374.92	0.0848	741.9	13.354	25.26	16.25	1.71
	58.92	27.50	73.41	0.00	0.0641	11.02	484.7	375.12	0.0849	741.4	13.346	25.25	16.24	1.71
	59.92	27.50	73.35	0.00	0.0638	10.97	482.6	373.78	0.0851	743.8	13.389	25.35	16.29	1.71
	60.92	27.48	73.41	0.00	0.0638	10.96	482.2	373.12	0.0852	748.2	13.467	25.47	16.38	1.71
	61.92	27.48	73.41	-0.00	0.0639	10.99	483.7	374.30	0.0851	746.3	13.434	25.41	16.35	1.71
	62.94	27.50	73.41	-0.00	0.0640	11.00	484.2	374.73	0.0849	744.3	13.398	25.35	16.31	1.71
	64.00	27.46	73.41	-0.00	0.0638	10.96	482.3	373.20	0.0855	750.4	13.508	25.55	16.43	1.71
	65.00	27.46	73.41	-0.00	0.0637	10.93	480.9	372.12	0.0860	756.7	13.621	25.76	16.56	1.71
	65.92	27.49	73.41	0.00	0.0638	10.95	481.7	372.79	0.0856	753.1	13.556	25.64	16.49	1.71
	66.92	27.49	73.41	-0.00	0.0638	10.94	481.5	372.59	0.0855	751.4	13.525	25.58	16.45	1.71
	67.92	27.49	73.41	0.00	0.0635	10.92	480.6	371.90	0.0860	754.7	13.585	25.70	16.52	1.71
	68.92	27.50	73.41	-0.00	0.0637	10.95	481.8	372.84	0.0859	755.8	13.605	25.74	16.55	1.71
	69.94	27.50	73.38	-0.00	0.0639	10.95	481.7	372.89	0.0856	754.0	13.571	25.68	16.51	1.71
	70.91	27.54	73.41	0.00	0.0638	10.95	481.9	372.97	0.0855	752.0	13.536	25.61	16.47	1.71
	71.94	27.51	73.41	-0.00	0.0636	10.93	480.8	372.10	0.0859	754.6	13.582	25.70	16.52	1.71
	72.92	27.52	73.41	-0.00	0.0637	10.94	481.2	372.43	0.0860	757.0	13.627	25.78	16.57	1.71
	73.92	27.51	73.41	0.00	0.0638	10.96	482.3	373.30	0.0857	754.8	13.586	25.70	16.52	1.71
	74.92	27.52	73.38	-0.00	0.0637	10.95	481.8	373.03	0.0860	755.9	13.607	25.75	16.55	1.71
	75.92	27.50	73.41	0.00	0.0635	10.92	480.4	371.76	0.0863	760.7	13.693	25.90	16.65	1.71
	76.92	27.51	73.41	-0.00	0.0636	10.91	480.0	371.46	0.0863	762.1	13.718	25.95	16.68	1.71
	77.94	27.51	73.41	-0.00	0.0638	10.95	482.0	373.02	0.0860	757.1	13.628	25.78	16.57	1.71
	78.92	27.52	73.41	0.00	0.0635	10.90	479.7	371.26	0.0864	762.8	13.731	25.98	16.69	1.71
	79.91	27.52	73.38	-0.00	0.0636	10.91	479.9	371.58	0.0864	762.3	13.721	25.97	16.68	1.71
	80.92	27.52	73.38	-0.00	0.0637	10.92	480.4	371.94	0.0866	765.4	13.778	26.08	16.75	1.71
	81.91	27.51	73.41	0.00	0.0636	10.92	480.3	371.69	0.0866	765.1	13.772	26.05	16.74	1.71
	82.92	27.53	73.41	0.00	0.0636	10.92	480.7	372.04	0.0867	765.3	13.775	26.06	16.74	1.71
	83.92	27.52	73.38	-0.00	0.0635	10.92	480.4	371.94	0.0867	764.2	13.755	26.03	16.72	1.71
	84.94	27.55	73.41	-0.00	0.0637	10.94	481.3	372.53	0.0863	762.0	13.716	25.95	16.68	1.71
	85.91	27.53	73.41	0.00	0.0635	10.88	478.9	370.69	0.0868	767.4	13.814	26.14	16.79	1.71
	86.94	27.53	73.41	-0.00	0.0637	10.93	480.8	372.10	0.0866	766.5	13.798	26.11	16.77	1.71
	87.92	27.56	73.41	-0.00	0.0637	10.92	480.4	371.84	0.0868	767.8	13.820	26.15	16.80	1.71
	88.92	27.53	73.38	0.00	0.0634	10.87	478.5	370.49	0.0871	772.6	13.907	26.32	16.89	1.71
	89.92	27.53	73.41	-0.00	0.0636	10.91	479.9	371.46	0.0868	769.9	13.858	26.22	16.84	1.72
	90.92	27.53	73.41	0.00	0.0636	10.90	479.8	371.36	0.0869	771.6	13.888	26.28	16.87	1.71
	91.92	27.53	73.41	-0.00	0.0636	10.89	479.0	370.72	0.0871	774.2	13.936	26.37	16.93	1.71
	92.94	27.53	73.35	-0.00	0.0635	10.88	478.9	370.95	0.0873	774.2	13.936	26.38	16.93	1.71
	93.98	27.55	73.41	0.00	0.0634	10.87	478.1	370.07	0.0872	775.2	13.953	26.40	16.95	1.71
	94.92	27.55	73.38	0.00	0.0635	10.87	478.3	370.37	0.0874	777.8	14.000	26.50	17.00	1.72
	95.92	27.55	73.41	0.00	0.0633	10.84	477.1	369.28	0.0877	782.3	14.082	26.64	17.09	1.72
	96.92	27.53	73.41	-0.00	0.0634	10.85	477.2	369.37	0.0877	782.3	14.082	26.64	17.09	1.71
	97.92	27.55	73.41	0.00	0.0634	10.86	477.9	369.92	0.0877	779.7	14.035	26.55	17.04	1.71
	98.91	27.55	73.41	0.00	0.0632	10.83	476.7	369.00	0.0883	786.0	14.147	26.77	17.16	1.71
	99.92	27.55	73.41	-0.00	0.0633	10.86	477.8	369.81	0.0879	782.3	14.081	26.64	17.09	1.71
	100.92	27.53	73.41	-0.00	0.0632	10.85	477.5	369.56	0.0881	782.6	14.087	26.65	17.10	1.72
	101.94	27.55	73.41	-0.00	0.0632	10.82	475.9	368.39	0.0883	788.9	14.201	26.87	17.22	1.72
	102.91	27.57	73.43	0.00	0.0634	10.86	477.8	369.70	0.0880	784.7	14.125	26.72	17.14	1.71
	103.94	27.55	73.38	-0.00	0.0631	10.80	475.3	368.05	0.0884	790.1	14.221	26.92	17.25	1.71
	104.91	27.55	73.38	0.00	0.0633	10.83	476.4	368.90	0.0883	790.4	14.226	26.93	17.25	1.71
	105.94	27.58	73.38	-0.00	0.0634	10.85	477.5	369.78	0.0881	785.5	14.140	26.77	17.16	1.71
	106.92	27.57	73.41	-0.00	0.0634	10.87	478.5	370.39	0.0880	783.5	14.102	26.68	17.12	1.72
	107.92	27.57	73.41	0.00	0.0633	10.86	477.7	369.76	0.0881	785.9	14.147	26.77	17.16	1.72
	108.98	27.55	73.38	0.00	0.0633	10.84	476.8	369.19	0.0883	789.1	14.204	26.88	17.23	1.71
	109.92	27.57	73.41	0.00	0.0633	10.86	477.8	369.88	0.0881	786.0	14.148	26.77	17.17	1.71
	110.91	27.59	73.40	0.00	0.0633	10.84	477.2	369.38	0.0883	788.5	14.192	26.86	17.22	1.71
	111.92	27.57	73.38	-0.00	0.0632	10.80	475.2	367.97	0.0888	794.9	14.309	27.08	17.34	1.72
	112.92	27.57	73.41	0.00	0.0631	10.81	475.6	368.18	0.0888	793.8	14.289	27.04	17.32	1.72
	113.92	27.58	73.41	-0.00	0.0631	10.80	475.3	367.91	0.0890	797.2	14.350	27.15	17.39	1.71
	114.92	27.60	73.43	-0.00	0.0631	10.80	475.3	367.81	0.0890	799.2	14.385	27.21	17.43	1.72
	115.92	27.57	73.41	-0.00	0.0631	10.79	474.8	367.57	0.0891	802.2	14.439	27.32	17.49	1.72
	116.92	27.59	73.41	0.00	0.0633	10.81	475.8	368.33	0.0890	799.8	14.396	27.24	17.44	1.71
	117.92	27.59	73.43	-0.00	0.0629	10.76	473.4	366.31	0.0896	801.6	14.428	27.29	17.48	1.72
	118.92	27.57	73.41	0.00	0.0632	10.81	475.4	368.04	0.0892	802.7	14.449	27.34	17.50	1.72
	119.91	27.59	73.38	0.00	0.0633	10.83	476.6	369.07	0.0891	800.2	14.404	27.27	17.45	1.71
	120.92	27.59	73.38	0.00	0.0632	10.82	476.2	368.78	0.0892	804.3	14.477	27.41	17.53	1.72
	121.92	27.61	73.41	0.00	0.0632	10.84	476.8	369.15	0.0893	800.2	14.404	27.26	17.45	1.72
	122.92	27.59	73.41	0.00	0.0632	10.80	475.3	367.96	0.0893	802.9	14.452	27.35	17.50	1.72
	123.92	27.61	73.38	-0.00	0.0633	10.82	476.2	368.77	0.0893	802.2	14.440	27.34	17.49	1.72
	124.94	27.63	73.41	0.00	0.0630	10.79	474.6	367.43	0.0896	806.7	14.521	27.48	17.58	1.72
	125.92	27.65	73.43	0.00	0.0630	10.79	474.6	367.35	0.0897	806.5	14.517	27.47	17.58	1.72
	126.91	27.61	73.41	0.00	0.0630	10.78	474.1	367.05	0.0901	812.6	14.626	27.68	17.69	1.72
	127.91	27.61	73.41	0.00	0.0632	10.81	475.8	368.33	0.0898	810.8	14.594	27.62	17.66	1.72
	128.92	27.60	73.41	-0.00	0.0630	10.77	473.7	366.72	0.0904	817.3	14.711	27.84	17.79	1.72
	129.92	27.63	73.41	-0.00	0.0631	10.78	474.5	367.34	0.0904	819.6	14.753	27.92	17.83	1.72
	130.92	27.61	73.41	-0.00	0.0630	10.77	473.9	366.87	0.0903	820.2	14.763	27.94	17.84	1.72
	131.92	27.59	73.41	0.00	0.0629	10.76	473.5	366.52	0.0908	824.3	14.837	28.08	17.92	1.72
	132.92	27.63	73.41	-0.00	0.0630	10.78	474.5	367.34	0.0903	816.0	14.689	27.80	17.76	1.72
	133.92	27.63	73.41	-0.00	0.0631	10.80	475.3	367.97	0.0906	821.1	14.780	27.97	17.86	1.72
	134.91	27.62	73.41	0.00	0.0630	10.75	473.0	366.18	0.0910	829.5	14.931	28.26	18.02	1.72
	135.92	27.63	73.38	0.00	0.0630	10.80	475.2	368.06	0.0909	822.7	14.808	28.04	17.89	1.72
	136.92	27.63	73.41	0.00	0.0631	10.80	475.1	367.80	0.0908	823.1	14.815	28.04	17.90	1.72
	137.94	27.60	73.38	-0.00	0.0631	10.78	474.5	367.45	0.0907	822.9	14.813	28.04	17.90	1.72
	138.92	27.63	73.38	-0.00	0.0630	10.77	473.9	367.01	0.0909	823.8	14.828	28.07	17.91	1.72
	140.00	27.64	73.41	0.00	0.0630	10.78	474.2	367.17	0.0910	824.8	14.846	28.10	17.93	1.72
	140.92	27.60	73.41	-0.00	0.0631	10.80	475.0	367.76	0.0909	825.7	14.863	28.13	17.95	1.72
	141.91	27.62	73.41	0.00	0.0629	10.76	473.3	366.41	0.0912	829.0	14.921	28.24	18.01	1.72
	142.92	27.63	73.41	-0.00	0.0630	10.77	473.8	366.87	0.0912	830.5	14.949	28.29	18.04	1.72
	143.91	27.65	73.41	0.00	0.0630	10.78	474.1	367.10	0.0910	827.5	14.895	28.19	17.99	1.72
	144.91	27.65	73.41	0.00	0.0631	10.80	475.2	367.91	0.0911	827.0	14.886	28.17	17.98	1.72
	145.91	27.67	73.43	0.00	0.0629	10.74	472.5	365.77	0.0916	833.2	14.998	28.38	18.10	1.72
	146.91	27.65	73.41	0.00	0.0629	10.75	473.1	366.34	0.0915	834.1	15.014	28.42	18.11	1.72
	147.91	27.64	73.43	0.00	0.0629	10.73	472.3	365.58	0.0917	834.0	15.011	28.40	18.11	1.72
	148.98	27.65	73.36	0.00	0.0629	10.76	473.2	366.67	0.0919	837.7	15.079	28.56	18.18	1.72
	149.91	27.65	73.41	0.00	0.0629	10.75	472.9	366.15	0.0918	837.7	15.078	28.54	18.18	1.72
