Jul 29 2015 at 10:54:26
Frequency: 1.00Hz.
CO2
Zero:  Value:0.95  Date:18 Mar 2005	 at 07:22:33	
Span:  Value:1.00  Date:18 Mar 2005	 at 07:25:09	
H2O
Zero:  Value:0.71  Date:18 Mar 2005	 at 07:52:31	
Span:  Value:0.99  Date:18 Mar 2005	 at 11:44:01	
	Relative Time	Temperature	Pressure	Aux Input	CO2 Absorptance	CO2 mmol/m3	CO2 mg/m3	CO2 umol/mol	H2O Absorptance	H2O mmol/m3	H2O g/m3	H2O mmol/mol	H2O(°C)	Cooler Voltage
	0.59	31.07	73.43	-0.00	0.0658	11.41	502.0	392.99	0.0497	346.9	6.245	11.95	5.03	1.72
	1.58	31.06	73.38	0.00	0.0659	11.42	502.6	393.73	0.0499	346.9	6.244	11.96	5.02	1.73
	2.58	31.07	73.38	0.00	0.0659	11.45	503.7	394.57	0.0500	345.6	6.220	11.91	4.97	1.72
	3.59	31.06	73.40	-0.00	0.0659	11.43	502.9	393.79	0.0488	336.7	6.061	11.60	4.60	1.72
	4.59	31.06	73.38	-0.00	0.0658	11.41	502.3	393.44	0.0488	336.7	6.060	11.60	4.60	1.72
	5.58	31.07	73.38	0.00	0.0658	11.41	502.0	393.25	0.0491	338.5	6.093	11.67	4.67	1.72
	6.66	31.10	73.35	0.00	0.0657	11.37	500.5	392.24	0.0490	337.8	6.080	11.65	4.64	1.72
	7.58	31.08	73.41	0.00	0.0657	11.39	501.4	392.64	0.0490	340.3	6.125	11.73	4.75	1.72
	8.58	31.08	73.41	-0.00	0.0657	11.37	500.4	391.84	0.0497	353.3	6.359	12.17	5.29	1.72
	9.59	31.05	73.40	-0.00	0.0657	11.39	501.0	392.27	0.0508	353.1	6.355	12.16	5.28	1.72
	10.58	31.10	73.43	-0.00	0.0657	11.39	500.9	392.19	0.0506	353.5	6.363	12.18	5.30	1.72
	11.59	31.07	73.40	-0.00	0.0656	11.37	500.1	391.62	0.0503	350.2	6.303	12.07	5.16	1.72
	12.58	31.07	73.41	-0.00	0.0657	11.37	500.2	391.70	0.0503	350.2	6.304	12.07	5.16	1.72
	13.58	31.05	73.43	0.00	0.0657	11.39	501.0	392.15	0.0498	347.9	6.261	11.98	5.06	1.72
	14.58	31.07	73.38	0.00	0.0655	11.33	498.5	390.48	0.0483	333.3	6.000	11.49	4.45	1.72
	15.58	31.07	73.41	0.00	0.0655	11.34	498.8	390.60	0.0487	337.0	6.066	11.61	4.61	1.72
	16.66	31.09	73.41	0.00	0.0655	11.34	498.9	390.73	0.0489	336.5	6.058	11.60	4.59	1.72
	17.59	31.14	73.41	-0.00	0.0657	11.38	500.9	392.33	0.0493	340.8	6.134	11.74	4.77	1.72
	18.58	31.07	73.38	0.00	0.0655	11.33	498.3	390.38	0.0488	336.7	6.060	11.60	4.60	1.72
	19.58	31.10	73.41	0.00	0.0655	11.35	499.3	391.00	0.0503	351.0	6.317	12.09	5.19	1.72
	20.59	31.06	73.41	0.00	0.0655	11.35	499.3	390.96	0.0508	354.0	6.372	12.20	5.32	1.72
	21.56	31.09	73.41	0.00	0.0655	11.34	498.8	390.61	0.0516	364.2	6.556	12.55	5.73	1.72
	22.59	31.12	73.41	-0.00	0.0655	11.34	499.0	390.85	0.0519	365.7	6.583	12.60	5.79	1.72
	23.58	31.07	73.35	-0.00	0.0655	11.34	499.1	391.15	0.0523	368.9	6.640	12.72	5.91	1.72
	24.58	31.07	73.38	0.00	0.0655	11.33	498.5	390.54	0.0526	369.9	6.659	12.75	5.95	1.72
	25.58	31.12	73.41	-0.00	0.0655	11.33	498.5	390.43	0.0526	373.4	6.721	12.87	6.09	1.72
	26.58	31.07	73.41	0.00	0.0654	11.32	497.9	389.89	0.0530	375.5	6.759	12.94	6.17	1.72
	27.58	31.09	73.41	0.00	0.0653	11.28	496.5	388.84	0.0541	385.3	6.936	13.28	6.54	1.72
	28.59	31.09	73.41	-0.00	0.0653	11.29	496.9	389.16	0.0541	387.2	6.970	13.34	6.61	1.72
	29.58	31.12	73.38	0.00	0.0653	11.29	496.6	389.05	0.0543	389.2	7.006	13.42	6.69	1.72
	30.58	31.13	73.41	0.00	0.0653	11.29	496.8	389.12	0.0544	390.8	7.034	13.47	6.75	1.72
	31.58	31.11	73.41	-0.00	0.0652	11.27	495.8	388.31	0.0547	396.6	7.140	13.67	6.97	1.72
	32.58	31.08	73.38	0.00	0.0651	11.25	494.8	387.61	0.0550	394.9	7.107	13.61	6.90	1.72
	33.58	31.10	73.41	0.00	0.0651	11.25	495.1	387.72	0.0557	403.3	7.259	13.90	7.21	1.72
	34.58	31.11	73.41	0.00	0.0649	11.23	494.0	386.90	0.0564	407.9	7.342	14.06	7.37	1.72
	35.66	31.09	73.41	-0.00	0.0650	11.25	495.0	387.63	0.0565	408.9	7.361	14.09	7.41	1.72
	36.59	31.09	73.38	-0.00	0.0647	11.15	490.7	384.46	0.0580	426.7	7.680	14.71	8.03	1.72
	37.59	31.12	73.38	-0.00	0.0649	11.20	493.0	386.27	0.0579	424.5	7.640	14.63	7.96	1.72
	38.56	31.06	73.41	0.00	0.0648	11.20	492.7	385.80	0.0577	423.7	7.626	14.60	7.93	1.72
	39.58	31.09	73.41	0.00	0.0647	11.14	490.3	383.96	0.0580	425.0	7.650	14.65	7.98	1.72
	40.58	31.09	73.35	-0.00	0.0648	11.17	491.5	385.16	0.0583	427.8	7.700	14.75	8.07	1.72
	41.58	31.09	73.41	0.00	0.0647	11.17	491.4	384.83	0.0584	430.8	7.754	14.84	8.17	1.72
	42.56	31.11	73.43	0.00	0.0647	11.16	490.9	384.35	0.0588	434.3	7.817	14.96	8.29	1.72
	43.59	31.11	73.38	-0.00	0.0645	11.11	489.1	383.16	0.0613	455.6	8.200	15.70	9.00	1.72
	44.64	31.11	73.35	0.00	0.0644	11.11	488.7	383.03	0.0617	463.5	8.344	15.98	9.26	1.72
	45.58	31.11	73.38	0.00	0.0645	11.11	488.8	382.97	0.0620	466.6	8.399	16.09	9.36	1.72
	46.58	31.15	73.41	-0.00	0.0645	11.11	488.8	382.91	0.0622	467.7	8.419	16.12	9.39	1.72
	47.58	31.10	73.43	0.00	0.0645	11.10	488.6	382.50	0.0621	471.0	8.479	16.23	9.50	1.72
	48.58	31.14	73.41	0.00	0.0646	11.14	490.0	383.75	0.0616	466.2	8.392	16.07	9.35	1.72
	49.59	31.11	73.38	-0.00	0.0644	11.08	487.6	382.02	0.0623	472.6	8.507	16.29	9.55	1.72
	50.58	31.11	73.38	-0.00	0.0643	11.07	487.2	381.69	0.0629	478.7	8.617	16.50	9.74	1.72
	51.58	31.14	73.38	0.00	0.0642	11.06	486.8	381.43	0.0634	479.1	8.624	16.52	9.75	1.72
	52.58	31.10	73.41	0.00	0.0640	11.01	484.4	379.41	0.0648	495.8	8.924	17.08	10.26	1.72
	53.58	31.13	73.38	0.00	0.0637	10.97	482.6	378.11	0.0665	516.7	9.300	17.81	10.88	1.72
	54.58	31.11	73.38	0.00	0.0638	10.96	482.0	377.66	0.0669	520.1	9.362	17.93	10.98	1.72
	55.56	31.10	73.40	0.00	0.0636	10.91	479.8	375.80	0.0669	523.3	9.419	18.03	11.07	1.72
	56.58	31.13	73.40	0.00	0.0640	11.00	484.1	379.17	0.0653	507.3	9.132	17.48	10.61	1.72
	57.56	31.13	73.38	0.00	0.0639	11.00	484.0	379.23	0.0660	507.1	9.128	17.48	10.60	1.72
	58.58	31.08	73.41	0.00	0.0635	10.88	478.7	374.85	0.0674	531.7	9.570	18.32	11.31	1.72
	59.58	31.13	73.38	0.00	0.0640	10.99	483.4	378.75	0.0661	514.2	9.255	17.73	10.81	1.72
	60.59	31.13	73.38	-0.00	0.0640	11.01	484.3	379.44	0.0663	516.2	9.292	17.80	10.87	1.72
	61.58	31.13	73.38	-0.00	0.0636	10.97	482.7	378.21	0.0680	526.5	9.476	18.15	11.16	1.72
	62.59	31.13	73.43	-0.00	0.0637	10.97	482.6	377.86	0.0677	528.6	9.515	18.21	11.22	1.72
	63.58	31.13	73.40	-0.00	0.0638	10.97	482.7	378.05	0.0672	524.5	9.441	18.08	11.11	1.72
	64.59	31.13	73.46	-0.00	0.0633	10.90	479.7	375.45	0.0705	549.2	9.886	18.92	11.80	1.72
	65.58	31.15	73.41	-0.00	0.0637	10.92	480.5	376.40	0.0688	545.5	9.820	18.80	11.70	1.72
	66.59	31.13	73.41	-0.00	0.0636	10.92	480.4	376.30	0.0688	545.4	9.817	18.80	11.70	1.72
	67.64	31.13	73.38	0.00	0.0636	10.93	480.7	376.66	0.0689	545.2	9.814	18.80	11.69	1.72
	68.59	31.12	73.40	-0.00	0.0637	10.93	481.1	376.78	0.0688	540.8	9.734	18.64	11.57	1.72
	69.58	31.12	73.38	0.00	0.0637	10.94	481.5	377.28	0.0705	564.5	10.160	19.46	12.22	1.72
	70.58	31.17	73.38	0.00	0.0636	10.91	480.0	376.13	0.0706	568.5	10.232	19.60	12.33	1.72
	71.59	31.15	73.38	-0.00	0.0635	10.89	479.1	375.43	0.0707	566.2	10.192	19.52	12.27	1.72
	72.56	31.12	73.40	0.00	0.0633	10.86	477.7	374.16	0.0708	567.3	10.212	19.55	12.29	1.72
	73.58	31.12	73.41	0.00	0.0635	10.89	479.2	375.31	0.0709	567.5	10.215	19.56	12.30	1.72
	74.58	31.15	73.41	-0.00	0.0634	10.85	477.4	373.91	0.0713	567.4	10.212	19.55	12.30	1.72
	75.58	31.17	73.41	0.00	0.0635	10.88	478.9	375.12	0.0734	591.3	10.644	20.38	12.93	1.72
	76.58	31.15	73.41	-0.00	0.0634	10.87	478.3	374.63	0.0736	596.2	10.731	20.55	13.05	1.72
	77.59	31.15	73.43	-0.00	0.0634	10.89	479.0	375.07	0.0744	610.2	10.984	21.03	13.41	1.72
	78.58	31.13	73.43	-0.00	0.0633	10.87	478.3	374.51	0.0752	617.2	11.109	21.26	13.58	1.72
	79.59	31.14	73.38	0.00	0.0633	10.85	477.4	374.02	0.0752	619.3	11.147	21.35	13.63	1.72
	80.56	31.15	73.38	0.00	0.0633	10.86	477.7	374.30	0.0753	620.1	11.162	21.38	13.66	1.72
	81.58	31.15	73.41	0.00	0.0633	10.84	477.1	373.72	0.0758	624.0	11.232	21.51	13.75	1.72
	82.56	31.14	73.41	0.00	0.0630	10.81	475.5	372.45	0.0768	636.1	11.450	21.92	14.05	1.72
	83.58	31.15	73.38	0.00	0.0633	10.82	476.0	372.96	0.0760	633.7	11.407	21.85	13.99	1.72
	84.58	31.15	73.41	-0.00	0.0632	10.84	476.9	373.58	0.0762	634.0	11.412	21.85	14.00	1.72
	85.58	31.19	73.41	0.00	0.0632	10.83	476.3	373.14	0.0760	628.9	11.320	21.68	13.87	1.72
	86.58	31.15	73.38	-0.00	0.0631	10.82	476.1	373.04	0.0764	632.4	11.383	21.80	13.96	1.72
	87.59	31.15	73.40	-0.00	0.0631	10.81	475.6	372.52	0.0768	638.6	11.496	22.01	14.11	1.72
	88.58	31.15	73.38	-0.00	0.0631	10.81	475.8	372.79	0.0766	636.2	11.451	21.93	14.05	1.72
	89.56	31.15	73.40	0.00	0.0629	10.77	473.9	371.24	0.0763	634.1	11.414	21.86	14.00	1.72
	90.58	31.14	73.38	0.00	0.0631	10.79	474.7	371.98	0.0766	634.9	11.428	21.89	14.02	1.72
	91.58	31.15	73.41	-0.00	0.0631	10.80	475.3	372.35	0.0772	643.6	11.585	22.18	14.23	1.72
	92.58	31.13	73.41	-0.00	0.0631	10.79	474.8	371.90	0.0768	639.6	11.513	22.04	14.13	1.72
	93.58	31.17	73.38	-0.00	0.0630	10.80	475.1	372.29	0.0766	637.0	11.466	21.96	14.07	1.72
	94.58	31.19	73.41	0.00	0.0630	10.79	474.8	372.00	0.0774	645.2	11.613	22.24	14.27	1.72
	95.56	31.15	73.35	0.00	0.0629	10.76	473.7	371.28	0.0785	659.8	11.876	22.76	14.61	1.72
	96.59	31.16	73.38	-0.00	0.0629	10.76	473.3	370.90	0.0791	665.6	11.981	22.95	14.75	1.72
	97.56	31.17	73.38	0.00	0.0628	10.74	472.4	370.22	0.0797	674.0	12.131	23.24	14.94	1.72
	98.59	31.12	73.41	-0.00	0.0627	10.71	471.3	369.14	0.0799	676.8	12.182	23.32	15.01	1.72
	99.64	31.17	73.38	0.00	0.0626	10.69	470.5	368.71	0.0811	692.2	12.460	23.87	15.36	1.72
	100.59	31.17	73.38	-0.00	0.0625	10.68	470.0	368.28	0.0802	683.3	12.300	23.56	15.16	1.72
	101.56	31.17	73.38	0.00	0.0626	10.70	470.8	368.92	0.0802	682.7	12.288	23.54	15.14	1.72
	102.58	31.21	73.41	0.00	0.0626	10.68	470.1	368.32	0.0806	688.2	12.387	23.72	15.27	1.72
	103.56	31.16	73.41	0.00	0.0625	10.69	470.2	368.33	0.0807	687.3	12.371	23.69	15.25	1.72
	104.59	31.17	73.38	-0.00	0.0624	10.66	469.1	367.56	0.0805	688.9	12.400	23.75	15.28	1.72
	105.58	31.16	73.38	-0.00	0.0625	10.67	469.6	367.96	0.0804	684.6	12.323	23.61	15.19	1.72
	106.56	31.18	73.35	0.00	0.0625	10.68	469.9	368.40	0.0806	683.0	12.293	23.56	15.15	1.72
	107.58	31.17	73.38	0.00	0.0624	10.65	468.6	367.17	0.0815	696.4	12.536	24.01	15.45	1.72
	108.56	31.18	73.38	0.00	0.0624	10.65	468.4	367.07	0.0819	702.4	12.644	24.22	15.59	1.72
	109.58	31.19	73.38	0.00	0.0624	10.66	468.8	367.42	0.0821	705.3	12.696	24.32	15.65	1.72
	110.56	31.26	73.43	0.00	0.0618	10.53	463.4	363.00	0.0828	715.1	12.872	24.65	15.87	1.72
	111.58	31.19	73.38	0.00	0.0620	10.58	465.5	364.77	0.0827	714.7	12.864	24.64	15.86	1.72
	112.58	31.23	73.41	-0.00	0.0620	10.57	465.0	364.34	0.0825	712.5	12.825	24.56	15.81	1.72
	113.58	31.21	73.43	-0.00	0.0622	10.61	466.9	365.71	0.0824	711.0	12.799	24.50	15.78	1.72
	114.64	31.16	73.38	-0.00	0.0622	10.61	466.9	365.88	0.0826	712.3	12.821	24.56	15.80	1.72
	115.66	31.21	73.38	-0.00	0.0622	10.61	466.7	365.73	0.0827	714.7	12.865	24.65	15.86	1.72
	116.58	31.21	73.35	-0.00	0.0620	10.58	465.5	364.95	0.0832	717.1	12.908	24.74	15.91	1.72
	117.59	31.19	73.41	-0.00	0.0619	10.56	464.4	363.83	0.0835	721.8	12.993	24.88	16.01	1.72
	118.58	31.21	73.41	-0.00	0.0621	10.59	465.8	364.94	0.0837	727.5	13.095	25.08	16.14	1.72
	119.59	31.19	73.38	-0.00	0.0620	10.57	465.0	364.44	0.0832	723.4	13.022	24.95	16.05	1.72
	120.56	31.19	73.38	0.00	0.0620	10.57	465.2	364.58	0.0831	719.2	12.945	24.80	15.96	1.72
	121.58	31.23	73.38	0.00	0.0620	10.55	464.1	363.79	0.0840	732.0	13.177	25.25	16.24	1.72
	122.56	31.19	73.38	0.00	0.0619	10.55	464.3	363.88	0.0848	740.4	13.327	25.53	16.41	1.72
	123.56	31.21	73.35	0.00	0.0618	10.53	463.3	363.21	0.0852	749.4	13.488	25.85	16.60	1.72
	124.58	31.21	73.38	0.00	0.0617	10.52	463.1	362.94	0.0842	735.4	13.237	25.36	16.31	1.72
	125.58	31.21	73.38	0.00	0.0614	10.43	458.7	359.50	0.0853	746.0	13.429	25.73	16.53	1.72
	126.64	31.20	73.41	0.00	0.0614	10.44	459.5	359.99	0.0852	745.8	13.424	25.71	16.53	1.72
	127.56	31.19	73.38	0.00	0.0615	10.47	460.6	360.98	0.0857	752.9	13.553	25.96	16.68	1.72
	128.58	31.19	73.40	-0.00	0.0616	10.49	461.3	361.43	0.0858	755.2	13.593	26.03	16.72	1.72
	129.58	31.20	73.41	-0.00	0.0615	10.46	460.4	360.72	0.0856	752.8	13.550	25.95	16.67	1.72
