Jul 29 2015 at 14:51:07
Frequency: 1.00Hz.
CO2
Zero:  Value:0.95  Date:18 Mar 2005	 at 07:22:33	
Span:  Value:1.00  Date:18 Mar 2005	 at 07:25:09	
H2O
Zero:  Value:0.71  Date:18 Mar 2005	 at 07:52:31	
Span:  Value:0.99  Date:18 Mar 2005	 at 11:44:01	
	Relative Time	Temperature	Pressure	Aux Input	CO2 Absorptance	CO2 mmol/m3	CO2 mg/m3	CO2 umol/mol	H2O Absorptance	H2O mmol/m3	H2O g/m3	H2O mmol/mol	H2O(°C)	Cooler Voltage
	0.42	36.31	73.77	0.00	0.0752	13.39	589.1	466.95	0.0527	375.4	6.758	13.09	6.41	1.73
	1.44	36.21	73.77	0.00	0.0712	12.54	551.6	437.08	0.0485	324.4	5.840	11.31	4.31	1.73
	2.45	36.25	73.77	-0.00	0.0705	12.43	547.0	433.49	0.0471	320.5	5.770	11.18	4.14	1.73
	3.44	36.21	73.80	0.00	0.0709	12.60	554.3	439.09	0.0468	318.7	5.737	11.11	4.05	1.73
	4.44	36.25	73.80	0.00	0.0699	12.35	543.6	430.65	0.0462	314.0	5.653	10.95	3.85	1.73
	5.44	36.26	73.80	0.00	0.0697	12.26	539.6	427.49	0.0462	312.3	5.621	10.88	3.76	1.72
	6.52	36.22	73.80	-0.00	0.0702	12.34	542.8	429.95	0.0466	314.9	5.668	10.97	3.88	1.72
	7.42	36.25	73.80	0.00	0.0717	12.75	561.1	444.49	0.0487	335.3	6.035	11.69	4.78	1.72
	8.44	36.26	73.77	0.00	0.0713	12.63	555.6	440.36	0.0484	332.9	5.992	11.61	4.68	1.73
	9.45	36.25	73.80	-0.00	0.0711	12.60	554.6	439.36	0.0494	344.3	6.197	12.00	5.16	1.73
	10.44	36.26	73.77	0.00	0.0708	12.53	551.3	436.90	0.0492	340.1	6.122	11.86	4.99	1.72
	11.44	36.24	73.77	0.00	0.0710	12.56	552.7	438.01	0.0496	343.3	6.180	11.97	5.12	1.72
	12.45	36.26	73.74	-0.00	0.0712	12.54	551.9	437.57	0.0499	346.3	6.234	12.08	5.24	1.72
	13.44	36.29	73.77	0.00	0.0717	12.72	559.8	443.74	0.0496	342.3	6.161	11.94	5.08	1.72
	14.42	36.27	73.77	0.00	0.0719	12.75	561.1	444.72	0.0498	344.9	6.209	12.03	5.19	1.73
	15.45	36.27	73.77	-0.00	0.0725	12.96	570.4	452.09	0.0498	346.7	6.240	12.09	5.26	1.73
	16.45	36.24	73.77	-0.00	0.0724	12.92	568.3	450.36	0.0502	347.9	6.263	12.13	5.31	1.72
	17.44	36.27	73.82	-0.00	0.0722	12.85	565.5	447.86	0.0505	351.8	6.332	12.26	5.47	1.72
	18.45	36.28	73.80	0.00	0.0724	12.88	566.6	448.90	0.0500	348.0	6.263	12.13	5.31	1.72
	19.45	36.26	73.80	-0.00	0.0722	12.86	565.7	448.19	0.0499	348.4	6.271	12.15	5.33	1.72
	20.44	36.26	73.80	-0.00	0.0723	12.93	568.8	450.64	0.0506	360.3	6.485	12.56	5.81	1.73
	21.44	36.27	73.77	0.00	0.0723	12.88	566.6	449.10	0.0506	353.3	6.359	12.32	5.53	1.72
	22.45	36.27	73.77	-0.00	0.0722	12.87	566.3	448.83	0.0504	352.6	6.346	12.29	5.50	1.72
	23.44	36.29	73.74	0.00	0.0732	13.12	577.3	457.74	0.0534	387.5	6.975	13.52	6.87	1.72
	24.44	36.24	73.77	0.00	0.0737	13.01	572.6	453.77	0.0558	386.3	6.953	13.47	6.82	1.72
	25.45	36.28	73.77	0.00	0.0734	13.14	578.2	458.23	0.0552	400.1	7.201	13.95	7.34	1.72
	26.44	36.27	73.77	0.00	0.0744	13.18	580.1	459.78	0.0589	405.5	7.299	14.14	7.53	1.72
	27.44	36.24	73.77	0.00	0.0726	13.04	573.9	454.81	0.0536	394.4	7.099	13.75	7.13	1.72
	28.45	36.27	73.80	0.00	0.0725	12.90	567.7	449.80	0.0540	384.4	6.919	13.40	6.75	1.72
	29.45	36.32	73.80	-0.00	0.0734	13.03	573.2	454.18	0.0578	404.7	7.285	14.11	7.51	1.72
	30.44	36.32	73.80	0.00	0.0725	12.98	571.0	452.46	0.0546	398.1	7.165	13.88	7.26	1.72
	31.44	36.29	73.80	-0.00	0.0717	12.74	560.4	444.01	0.0537	382.7	6.888	13.34	6.69	1.72
	32.45	36.26	73.77	-0.00	0.0714	12.66	557.3	441.65	0.0540	385.7	6.942	13.45	6.80	1.72
	33.44	36.28	73.74	0.00	0.0714	12.64	556.2	440.99	0.0558	395.0	7.110	13.78	7.15	1.72
	34.44	36.29	73.77	-0.00	0.0713	12.65	556.4	441.04	0.0556	397.4	7.153	13.86	7.24	1.72
	35.44	36.29	73.80	0.00	0.0714	12.67	557.4	441.67	0.0565	411.8	7.412	14.35	7.76	1.72
	36.44	36.26	73.77	0.00	0.0714	12.67	557.4	441.73	0.0574	416.2	7.492	14.51	7.92	1.72
	37.50	36.32	73.82	0.00	0.0715	12.69	558.3	442.23	0.0572	416.9	7.505	14.53	7.94	1.72
	38.42	36.29	73.77	0.00	0.0712	12.62	555.3	440.16	0.0572	421.5	7.587	14.70	8.10	1.73
	39.45	36.25	73.77	0.00	0.0712	12.62	555.1	439.89	0.0579	423.1	7.616	14.75	8.16	1.72
	40.44	36.28	73.75	0.00	0.0712	12.63	555.7	440.57	0.0576	420.6	7.572	14.67	8.07	1.72
	41.42	36.33	73.77	0.00	0.0713	12.63	555.6	440.41	0.0571	417.6	7.516	14.56	7.97	1.72
	42.45	36.32	73.80	-0.00	0.0711	12.58	553.7	438.74	0.0584	430.8	7.755	15.02	8.43	1.72
	43.44	36.35	73.82	0.00	0.0708	12.50	550.1	435.76	0.0600	451.7	8.131	15.75	9.13	1.72
	44.42	36.33	73.80	0.00	0.0707	12.50	550.2	435.96	0.0602	454.0	8.172	15.83	9.20	1.72
	45.42	36.32	73.80	0.00	0.0704	12.44	547.3	433.70	0.0616	462.9	8.332	16.14	9.49	1.72
	46.44	36.29	73.80	0.00	0.0705	12.44	547.6	433.85	0.0617	451.9	8.134	15.75	9.13	1.72
	47.44	36.29	73.80	0.00	0.0704	12.43	546.8	433.25	0.0618	465.8	8.384	16.24	9.58	1.72
	48.44	36.29	73.77	-0.00	0.0704	12.43	547.1	433.60	0.0611	453.8	8.168	15.83	9.19	1.72
	49.45	36.27	73.77	-0.00	0.0703	12.43	546.8	433.35	0.0621	449.9	8.098	15.69	9.06	1.73
	50.45	36.26	73.77	0.00	0.0702	12.39	545.2	432.11	0.0625	474.1	8.533	16.53	9.84	1.73
	51.42	36.23	73.77	0.00	0.0701	12.36	543.9	430.98	0.0639	485.3	8.736	16.92	10.19	1.72
	52.44	36.22	73.77	-0.00	0.0698	12.32	542.2	429.67	0.0644	493.8	8.888	17.22	10.45	1.72
	53.45	36.20	73.82	-0.00	0.0699	12.30	541.2	428.55	0.0637	489.4	8.809	17.05	10.31	1.72
	54.44	36.16	73.77	-0.00	0.0698	12.29	541.0	428.59	0.0643	493.6	8.884	17.21	10.44	1.72
	55.42	36.20	73.80	0.00	0.0697	12.23	538.2	426.33	0.0644	499.9	8.998	17.42	10.63	1.73
	56.45	36.22	73.77	0.00	0.0694	12.16	535.0	423.95	0.0660	512.6	9.227	17.87	11.01	1.72
	57.44	36.22	73.77	0.00	0.0694	12.22	537.7	426.11	0.0656	504.5	9.081	17.59	10.77	1.72
	58.44	36.20	73.80	-0.00	0.0694	12.18	535.9	424.50	0.0654	504.8	9.087	17.59	10.78	1.72
	59.42	36.22	73.80	0.00	0.0693	12.18	535.8	424.44	0.0656	507.8	9.140	17.70	10.87	1.72
	60.44	36.22	73.74	0.00	0.0693	12.17	535.5	424.49	0.0653	499.9	8.998	17.44	10.63	1.73
	61.50	36.25	73.80	0.00	0.0693	12.18	535.7	424.39	0.0657	507.7	9.139	17.70	10.87	1.73
	62.42	36.27	73.77	0.00	0.0692	12.12	533.2	422.58	0.0659	509.7	9.174	17.77	10.93	1.72
	63.45	36.24	73.77	-0.00	0.0691	12.11	532.9	422.30	0.0661	517.3	9.311	18.04	11.15	1.72
	64.44	36.29	73.77	0.00	0.0689	12.09	531.9	421.58	0.0671	521.0	9.378	18.17	11.26	1.72
	65.42	36.31	73.80	0.00	0.0687	12.05	530.0	419.96	0.0674	526.4	9.475	18.35	11.42	1.72
	66.44	36.27	73.77	-0.00	0.0688	12.05	530.2	420.24	0.0670	521.5	9.387	18.19	11.27	1.73
	67.52	36.26	73.82	-0.00	0.0688	12.08	531.5	420.97	0.0672	525.5	9.459	18.31	11.39	1.73
	68.44	36.32	73.77	-0.00	0.0687	12.03	529.2	419.50	0.0677	527.5	9.494	18.40	11.45	1.72
	69.44	36.29	73.77	-0.00	0.0687	12.03	529.4	419.58	0.0674	528.0	9.503	18.41	11.46	1.72
	70.45	36.26	73.80	-0.00	0.0686	12.02	528.9	419.01	0.0682	534.6	9.622	18.63	11.65	1.72
	71.44	36.26	73.80	-0.00	0.0686	12.02	528.9	419.04	0.0681	535.1	9.632	18.65	11.66	1.72
	72.44	36.29	73.80	0.00	0.0684	11.97	526.5	417.19	0.0686	541.0	9.738	18.86	11.83	1.73
	73.47	36.32	73.80	0.00	0.0683	11.96	526.4	417.11	0.0693	546.5	9.836	19.05	11.98	1.73
	74.45	36.31	73.77	0.00	0.0681	11.91	524.2	415.50	0.0698	554.1	9.973	19.32	12.19	1.72
	75.44	36.32	73.77	0.00	0.0681	11.89	523.1	414.62	0.0704	560.1	10.082	19.53	12.36	1.72
	76.44	36.28	73.77	0.00	0.0680	11.89	523.4	414.80	0.0710	565.8	10.184	19.73	12.51	1.72
	77.45	36.28	73.74	0.00	0.0680	11.85	521.4	413.42	0.0713	566.4	10.196	19.76	12.53	1.72
