Jul 29 2015 at 10:08:29
Frequency: 1Hz.
CO2
Zero:  Value:0.954578  Date:18 Mar 2005	 at 07:22:33	
Span:  Value:0.999099  Date:18 Mar 2005	 at 07:25:09	
H2O
Zero:  Value:0.712542  Date:18 Mar 2005	 at 07:52:31	
Span:  Value:0.993508  Date:18 Mar 2005	 at 11:44:01	
	Relative Time	Temperature	Pressure	Aux Input	CO2 Absorptance	CO2 mmol/m3	CO2 mg/m3	CO2 umol/mol	H2O Absorptance	H2O mmol/m3	H2O g/m3	H2O mmol/mol	H2O(°C)	Cooler Voltage
	0.62	24.15	73.41	0.00	0.0666	11.58	509.4	389.82	0.0537	383.7	6.907	12.92	6.15	1.57
	1.66	24.15	73.43	-0.00	0.0665	11.56	508.4	388.95	0.0537	383.1	6.896	12.90	6.13	1.57
	2.62	24.15	73.38	0.00	0.0663	11.54	507.9	388.86	0.0537	383.4	6.901	12.91	6.14	1.57
	3.64	24.15	73.41	0.00	0.0663	11.53	507.3	388.23	0.0541	387.1	6.968	13.03	6.28	1.57
	4.70	24.15	73.41	0.00	0.0663	11.52	506.7	387.77	0.0544	389.6	7.014	13.12	6.37	1.57
	5.64	24.15	73.41	0.00	0.0663	11.52	506.7	387.75	0.0545	388.7	6.996	13.09	6.33	1.57
	6.64	24.17	73.41	0.00	0.0662	11.49	505.4	386.76	0.0548	397.5	7.155	13.39	6.66	1.57
	7.66	24.17	73.43	-0.00	0.0660	11.45	503.8	385.46	0.0558	402.6	7.247	13.55	6.85	1.57
	8.64	24.15	73.41	0.00	0.0662	11.49	505.4	386.74	0.0547	395.6	7.122	13.32	6.59	1.57
	9.64	24.17	73.41	0.00	0.0663	11.51	506.5	387.63	0.0542	389.0	7.002	13.10	6.35	1.57
	10.64	24.19	73.41	-0.00	0.0664	11.53	507.4	388.33	0.0543	387.9	6.982	13.06	6.31	1.57
	11.62	24.18	73.43	0.00	0.0663	11.50	506.2	387.26	0.0548	395.6	7.121	13.32	6.59	1.57
	12.64	24.19	73.43	0.00	0.0662	11.51	506.6	387.60	0.0552	397.0	7.145	13.36	6.64	1.57
	13.64	24.19	73.41	-0.00	0.0659	11.44	503.2	385.11	0.0562	410.5	7.389	13.82	7.13	1.57
	14.72	24.19	73.43	-0.00	0.0661	11.45	503.7	385.35	0.0562	409.1	7.364	13.77	7.08	1.57
	15.64	24.21	73.43	-0.00	0.0659	11.42	502.5	384.49	0.0566	411.7	7.411	13.86	7.17	1.57
	16.64	24.18	73.41	0.00	0.0660	11.44	503.4	385.26	0.0570	416.6	7.499	14.03	7.35	1.57
	17.64	24.20	73.43	-0.00	0.0660	11.44	503.3	385.13	0.0573	420.3	7.566	14.15	7.48	1.57
	18.66	24.22	73.41	-0.00	0.0659	11.43	502.8	384.87	0.0586	429.4	7.729	14.46	7.79	1.57
	19.62	24.22	73.41	0.00	0.0658	11.41	501.9	384.19	0.0596	437.5	7.874	14.73	8.06	1.57
	20.64	24.26	73.46	0.00	0.0656	11.36	499.9	382.46	0.0612	460.6	8.291	15.50	8.83	1.57
	21.70	24.24	73.41	0.00	0.0656	11.36	499.7	382.54	0.0615	463.9	8.351	15.63	8.93	1.57
	22.64	24.24	73.41	0.00	0.0657	11.38	500.9	383.45	0.0607	456.3	8.213	15.37	8.68	1.57
	23.64	24.26	73.41	-0.00	0.0656	11.37	500.2	382.91	0.0607	451.5	8.127	15.21	8.53	1.57
	24.66	24.26	73.38	-0.00	0.0656	11.37	500.1	382.98	0.0606	453.7	8.167	15.29	8.60	1.57
	25.64	24.24	73.41	0.00	0.0657	11.37	500.1	382.82	0.0604	451.4	8.126	15.20	8.53	1.57
	26.62	24.26	73.41	0.00	0.0658	11.38	500.9	383.49	0.0598	447.4	8.053	15.07	8.40	1.57
	27.64	24.28	73.41	0.00	0.0658	11.39	501.2	383.72	0.0596	443.3	7.979	14.93	8.26	1.57
	28.64	24.26	73.41	-0.00	0.0657	11.40	501.6	383.99	0.0598	445.1	8.011	14.99	8.32	1.57
	29.64	24.25	73.41	0.00	0.0657	11.40	501.4	383.86	0.0602	447.1	8.048	15.06	8.39	1.57
	30.62	24.28	73.41	0.00	0.0656	11.36	499.9	382.72	0.0605	450.2	8.104	15.17	8.49	1.57
	31.64	24.27	73.41	0.00	0.0657	11.37	500.3	383.02	0.0602	449.6	8.092	15.14	8.47	1.57
	32.64	24.28	73.41	-0.00	0.0657	11.38	500.9	383.47	0.0601	449.2	8.085	15.13	8.46	1.57
	33.64	24.28	73.41	0.00	0.0657	11.39	501.1	383.64	0.0600	448.4	8.071	15.10	8.43	1.57
	34.62	24.28	73.43	0.00	0.0657	11.38	500.9	383.35	0.0605	452.3	8.141	15.23	8.56	1.57
	35.64	24.29	73.41	0.00	0.0655	11.36	499.7	382.58	0.0622	465.4	8.377	15.68	8.98	1.57
	36.62	24.28	73.43	0.00	0.0656	11.36	499.8	382.52	0.0616	462.2	8.319	15.56	8.88	1.57
	37.64	24.27	73.41	0.00	0.0653	11.30	497.0	380.54	0.0628	476.0	8.569	16.04	9.32	1.57
	38.70	24.27	73.41	0.00	0.0655	11.32	497.9	381.23	0.0625	475.1	8.552	16.01	9.29	1.57
	39.66	24.31	73.41	-0.00	0.0655	11.31	497.6	380.99	0.0633	483.7	8.707	16.30	9.56	1.57
	40.62	24.33	73.41	0.00	0.0656	11.36	499.7	382.65	0.0626	475.2	8.554	16.01	9.29	1.57
	41.64	24.31	73.43	0.00	0.0655	11.32	498.0	381.20	0.0649	496.9	8.944	16.74	9.96	1.57
	42.64	24.31	73.41	-0.00	0.0654	11.29	496.7	380.31	0.0650	502.0	9.036	16.91	10.11	1.57
	43.62	24.32	73.43	0.00	0.0645	11.11	489.0	374.28	0.0713	567.0	10.206	19.10	11.94	1.57
	44.70	24.33	73.43	0.00	0.0647	11.15	490.4	375.40	0.0693	549.3	9.887	18.50	11.46	1.57
	45.62	24.35	73.43	0.00	0.0652	11.22	493.9	378.05	0.0670	533.8	9.608	17.98	11.03	1.57
	46.64	24.35	73.41	0.00	0.0651	11.22	493.8	378.14	0.0674	530.5	9.549	17.88	10.94	1.57
	47.62	24.34	73.41	0.00	0.0651	11.22	493.7	378.03	0.0676	528.9	9.520	17.82	10.89	1.57
	48.64	24.35	73.43	0.00	0.0652	11.26	495.6	379.41	0.0667	520.3	9.365	17.52	10.65	1.57
	49.62	24.36	73.41	-0.00	0.0651	11.26	495.5	379.48	0.0666	515.7	9.283	17.38	10.51	1.57
	50.64	24.36	73.41	0.00	0.0652	11.27	495.8	379.70	0.0666	519.0	9.341	17.49	10.61	1.57
	51.62	24.36	73.41	0.00	0.0651	11.26	495.4	379.40	0.0672	524.4	9.439	17.67	10.77	1.57
	52.64	24.36	73.43	0.00	0.0651	11.26	495.3	379.20	0.0668	522.3	9.402	17.59	10.71	1.57
	53.64	24.38	73.41	-0.00	0.0652	11.27	495.8	379.74	0.0669	521.6	9.389	17.58	10.69	1.57
	54.66	24.38	73.41	-0.00	0.0652	11.28	496.4	380.18	0.0677	530.2	9.543	17.87	10.93	1.57
	55.64	24.38	73.41	0.00	0.0652	11.28	496.1	379.98	0.0684	537.2	9.670	18.10	11.13	1.57
	56.66	24.38	73.41	-0.00	0.0650	11.23	494.0	378.35	0.0677	531.9	9.575	17.92	10.98	1.57
	57.62	24.40	73.41	0.00	0.0652	11.26	495.2	379.30	0.0681	537.8	9.680	18.12	11.15	1.57
	58.64	24.38	73.41	0.00	0.0651	11.25	495.1	379.15	0.0688	539.3	9.707	18.17	11.19	1.57
	59.62	24.40	73.41	0.00	0.0650	11.24	494.7	378.93	0.0696	549.6	9.892	18.52	11.47	1.57
	60.64	24.40	73.41	-0.00	0.0650	11.23	494.2	378.51	0.0704	556.0	10.008	18.74	11.65	1.58
	61.70	24.40	73.41	0.00	0.0648	11.18	491.8	376.71	0.0709	569.9	10.259	19.21	12.02	1.57
	62.64	24.38	73.43	-0.00	0.0648	11.20	492.8	377.28	0.0684	539.0	9.702	18.16	11.18	1.57
	63.70	24.40	73.43	0.00	0.0649	11.19	492.5	377.09	0.0693	546.7	9.841	18.42	11.40	1.57
	64.64	24.42	73.41	-0.00	0.0650	11.21	493.4	377.92	0.0689	544.4	9.799	18.35	11.33	1.58
	65.64	24.41	73.41	0.00	0.0649	11.22	493.5	378.03	0.0689	544.8	9.806	18.36	11.34	1.58
	66.62	24.41	73.38	0.00	0.0650	11.21	493.2	377.92	0.0688	542.8	9.770	18.30	11.29	1.58
	67.72	24.42	73.41	-0.00	0.0649	11.20	492.9	377.53	0.0694	551.5	9.927	18.59	11.53	1.58
	68.64	24.41	73.43	-0.00	0.0648	11.18	491.8	376.60	0.0707	561.8	10.112	18.93	11.81	1.58
	69.72	24.43	73.43	-0.00	0.0647	11.15	490.6	375.67	0.0713	573.9	10.329	19.33	12.13	1.58
	70.62	24.43	73.41	0.00	0.0645	11.12	489.1	374.67	0.0720	583.2	10.497	19.66	12.38	1.58
	71.64	24.45	73.41	0.00	0.0645	11.09	488.0	373.82	0.0722	586.2	10.551	19.76	12.45	1.58
	72.62	24.45	73.41	0.00	0.0644	11.11	488.8	374.45	0.0724	584.8	10.526	19.71	12.42	1.58
	73.66	24.47	73.41	-0.00	0.0643	11.08	487.3	373.33	0.0740	598.9	10.781	20.19	12.78	1.58
	74.62	24.43	73.41	0.00	0.0645	11.08	487.6	373.49	0.0734	602.8	10.850	20.32	12.88	1.58
	75.62	24.47	73.43	0.00	0.0646	11.14	490.0	375.29	0.0714	577.4	10.394	19.46	12.23	1.58
	76.64	24.47	73.41	0.00	0.0647	11.16	491.0	376.16	0.0720	572.7	10.309	19.30	12.10	1.58
	77.62	24.47	73.43	0.00	0.0624	10.66	469.0	359.20	0.0842	737.1	13.268	24.84	15.99	1.58
	78.64	24.47	73.41	0.00	0.0633	10.70	470.7	360.60	0.0798	715.7	12.882	24.12	15.53	1.58
	79.64	24.45	73.41	-0.00	0.0641	11.00	484.2	370.89	0.0757	629.5	11.331	21.22	13.54	1.58
	80.64	24.47	73.41	-0.00	0.0635	10.93	481.0	368.48	0.0784	651.3	11.723	21.95	14.07	1.58
	81.64	24.47	73.41	-0.00	0.0627	10.70	470.9	360.79	0.0834	725.4	13.056	24.45	15.74	1.58
	82.70	24.46	73.41	0.00	0.0632	10.85	477.2	365.61	0.0807	682.9	12.293	23.02	14.80	1.58
	83.62	24.47	73.41	0.00	0.0633	10.84	477.0	365.42	0.0804	679.5	12.231	22.90	14.73	1.58
	84.64	24.49	73.43	0.00	0.0636	10.86	477.8	365.97	0.0787	682.1	12.279	22.99	14.79	1.58
	85.62	24.51	73.41	-0.00	0.0636	10.95	482.0	369.30	0.0787	646.2	11.632	21.79	13.95	1.58
	86.64	24.48	73.41	0.00	0.0635	10.87	478.1	366.29	0.0794	674.3	12.138	22.73	14.61	1.58
	87.62	24.50	73.41	0.00	0.0637	10.89	479.1	367.10	0.0777	667.3	12.011	22.50	14.45	1.58
	88.64	24.51	73.43	0.00	0.0637	10.97	482.5	369.59	0.0772	631.8	11.372	21.29	13.60	1.58
	89.62	24.50	73.41	0.00	0.0642	11.05	486.1	372.47	0.0733	595.9	10.727	20.09	12.71	1.58
	90.62	24.52	73.43	0.00	0.0641	11.03	485.3	371.73	0.0742	608.1	10.947	20.50	13.02	1.58
	91.62	24.54	73.43	0.00	0.0636	10.93	480.8	368.29	0.0785	649.9	11.698	21.90	14.04	1.58
	92.64	24.52	73.41	-0.00	0.0635	10.90	479.7	367.60	0.0780	654.9	11.788	22.08	14.16	1.58
	93.62	24.51	73.43	0.00	0.0636	10.90	479.8	367.46	0.0776	650.1	11.702	21.91	14.04	1.58
	94.64	24.54	73.41	-0.00	0.0636	10.92	480.5	368.17	0.0776	647.0	11.645	21.81	13.97	1.58
	95.64	24.56	73.41	-0.00	0.0635	10.88	478.6	366.80	0.0787	663.5	11.943	22.37	14.36	1.58
	96.62	24.54	73.41	0.00	0.0634	10.88	478.7	366.83	0.0791	666.0	11.988	22.46	14.42	1.58
	97.62	24.56	73.41	0.00	0.0634	10.87	478.1	366.37	0.0799	674.9	12.149	22.76	14.63	1.58
	98.62	24.56	73.41	0.00	0.0632	10.85	477.3	365.76	0.0800	680.9	12.256	22.96	14.76	1.58
	99.64	24.56	73.41	-0.00	0.0632	10.85	477.2	365.69	0.0821	688.5	12.392	23.21	14.93	1.58
	100.62	24.56	73.38	0.00	0.0627	10.73	471.9	361.79	0.0849	749.3	13.487	25.27	16.25	1.58
	101.70	24.56	73.41	0.00	0.0626	10.69	470.2	360.35	0.0872	774.6	13.944	26.12	16.78	1.58
	102.64	24.59	73.43	-0.00	0.0628	10.75	473.0	362.38	0.0854	748.3	13.469	25.22	16.23	1.58
	103.64	24.58	73.41	0.00	0.0631	10.76	473.5	362.91	0.0833	731.6	13.169	24.67	15.88	1.58
	104.64	24.58	73.41	-0.00	0.0628	10.76	473.4	362.84	0.0830	714.4	12.860	24.09	15.51	1.58
	105.62	24.58	73.41	-0.00	0.0627	10.73	472.2	361.85	0.0852	741.8	13.352	25.01	16.10	1.58
	106.62	24.59	73.41	0.00	0.0627	10.73	471.9	361.70	0.0850	732.3	13.182	24.70	15.90	1.58
	107.62	24.59	73.41	0.00	0.0633	10.84	476.8	365.45	0.0789	667.6	12.017	22.51	14.46	1.58
	108.62	24.59	73.41	0.00	0.0633	10.86	477.7	366.13	0.0802	672.8	12.111	22.69	14.58	1.58
	109.72	24.60	73.40	-0.00	0.0631	10.82	476.3	365.05	0.0810	688.7	12.396	23.22	14.94	1.58
	110.62	24.59	73.41	0.00	0.0633	10.84	476.9	365.49	0.0803	679.4	12.229	22.91	14.73	1.58
	111.62	24.61	73.41	0.00	0.0629	10.76	473.7	363.04	0.0818	707.7	12.738	23.86	15.36	1.58
	112.70	24.59	73.41	0.00	0.0630	10.79	474.8	363.87	0.0826	702.6	12.647	23.69	15.25	1.58
	113.62	24.61	73.41	0.00	0.0629	10.75	472.8	362.37	0.0835	726.3	13.074	24.50	15.77	1.59
	114.62	24.61	73.41	0.00	0.0630	10.79	474.6	363.77	0.0823	710.7	12.793	23.97	15.43	1.58
	115.62	24.62	73.40	0.00	0.0629	10.76	473.6	363.00	0.0832	713.5	12.843	24.06	15.49	1.58
	116.62	24.61	73.41	0.00	0.0629	10.75	472.9	362.47	0.0822	712.0	12.816	24.01	15.46	1.58
	117.62	24.61	73.41	0.00	0.0627	10.73	472.0	361.77	0.0832	717.8	12.920	24.21	15.59	1.59
	118.62	24.61	73.41	0.00	0.0629	10.76	473.6	362.99	0.0826	711.3	12.803	23.99	15.44	1.58
	119.62	24.65	73.41	0.00	0.0628	10.73	471.9	361.74	0.0835	726.1	13.070	24.49	15.77	1.59
	120.64	24.63	73.41	-0.00	0.0628	10.72	471.8	361.65	0.0833	721.5	12.988	24.33	15.67	1.58
	121.62	24.63	73.41	0.00	0.0626	10.71	471.0	361.06	0.0844	737.9	13.282	24.89	16.02	1.58
	122.62	24.63	73.41	0.00	0.0625	10.69	470.4	360.56	0.0845	737.7	13.279	24.88	16.01	1.59
	123.64	24.65	73.41	-0.00	0.0627	10.70	470.8	360.93	0.0843	732.8	13.190	24.72	15.91	1.59
	124.62	24.65	73.43	0.00	0.0627	10.71	471.3	361.13	0.0850	742.7	13.368	25.04	16.12	1.59
	125.62	24.66	73.43	0.00	0.0628	10.72	471.5	361.35	0.0852	746.9	13.445	25.19	16.21	1.59
	126.62	24.66	73.43	-0.00	0.0627	10.71	471.1	361.04	0.0854	751.4	13.525	25.34	16.30	1.59
	127.62	24.68	73.41	0.00	0.0625	10.67	469.4	359.89	0.0869	766.6	13.800	25.86	16.62	1.59
	128.62	24.67	73.41	0.00	0.0624	10.66	468.9	359.50	0.0868	766.9	13.804	25.87	16.63	1.59
	129.64	24.68	73.41	-0.00	0.0624	10.65	468.6	359.25	0.0874	769.5	13.851	25.96	16.68	1.59
